##TITLE= fixdec1.jdx
##JCAMP-DX= 4.24 $$ converted PE file
##DATA TYPE= INFRARED SPECTRUM
##ORIGIN= Dept of Chemistry, UWI, JAMAICA
##OWNER= public domain
##DATE= 97/01/28
##TIME= 10:00:00
##$URL= http://wwwchem.uwimona.edu.jm:1104/spectra/testdata/index.html
##NPOINTS=  3951
##XUNITS= 1/CM          
##YUNITS= TRANSMITTANCE 
##RESOLUTION= 2 cm-1
##FIRSTX=  4400.007
##LASTX=  450
##XFACTOR= 1.0
##YFACTOR=  9.5367E-7
##FIRSTY=  64.915
##MAXY=  81.962                                 
##MINY= -.19226                                 
##XYDATA= (X++(Y..Y))
 4400   68068800 68092800 68145600 68100800 68140800 68232000
 4394   68304000 68316800 68195200 68152000 68182400 68176000
 4388   68240000 68252800 68156800 68156800 68236800 68292800
 4382   68302400 68265600 68233600 68214400 68224000 68284800
 4376   68353600 68334400 68219200 68230400 68315200 68276800
 4370   68259200 68264000 68257600 68316800 68292800 68339200
 4364   68436800 68321600 68272000 68417600 68480000 68409600
 4358   68350400 68355200 68432000 68452800 68404800 68428800
 4352   68491200 68464000 68390400 68388800 68419200 68436800
 4346   68395200 68308800 68358400 68500800 68483200 68414400
 4340   68467200 68480000 68528000 68585600 68548800 68552000
 4334   68572800 68532800 68555200 68601600 68521600 68523200
 4328   68590400 68569600 68534400 68582400 68620800 68630400
 4322   68592000 68544000 68563200 68563200 68596800 68684800
 4316   68704000 68667200 68675200 68740800 68768000 68702400
 4310   68603200 68577600 68659200 68675200 68668800 68627200
 4304   68582400 68632000 68700800 68750400 68750400 68705600
 4298   68744000 68793600 68705600 68702400 68764800 68790400
 4292   68851200 68806400 68704000 68648000 68747200 68849600
 4286   68795200 68785600 68828800 68889600 68937600 68915200
 4280   68878400 68924800 68969600 68953600 68875200 68811200
 4274   68846400 68897600 68947200 68998400 68945600 68844800
 4268   68873600 68993600 69003200 68936000 68985600 69038400
 4262   68966400 68900800 68929600 69012800 68987200 68878400
 4256   68934400 69008000 68976000 68961600 68952000 68936000
 4250   68990400 69113600 69177600 69136000 69048000 69064000
 4244   69105600 69124800 69108800 69051200 69073600 69070400
 4238   69022400 69123200 69132800 69081600 69121600 69168000
 4232   69140800 69134400 69203200 69236800 69184000 69120000
 4226   69134400 69166400 69148800 69163200 69168000 69212800
 4220   69267200 69238400 69212800 69246400 69291200 69323200
 4214   69323200 69344000 69350400 69308800 69235200 69260800
 4208   69321600 69296000 69302400 69377600 69385600 69392000
 4202   69420800 69404800 69339200 69300800 69283200 69278400
 4196   69350400 69395200 69377600 69387200 69396800 69385600
 4190   69459200 69475200 69403200 69406400 69424000 69457600
 4184   69515200 69539200 69547200 69547200 69574400 69510400
 4178   69476800 69516800 69547200 69558400 69516800 69571200
 4172   69641600 69577600 69494400 69515200 69596800 69616000
 4166   69592000 69603200 69625600 69641600 69648000 69612800
 4160   69553600 69572800 69673600 69675200 69603200 69622400
 4154   69720000 69692800 69659200 69728000 69732800 69700800
 4148   69667200 69662400 69723200 69756800 69739200 69776000
 4142   69732800 69696000 69729600 69752000 69793600 69844800
 4136   69832000 69801600 69830400 69843200 69846400 69856000
 4130   69793600 69806400 69841600 69836800 69836800 69814400
 4124   69848000 69923200 69881600 69784000 69852800 69990400
 4118   69953600 69920000 69897600 69862400 69846400 69883200
 4112   70008000 70091200 70048000 69990400 70004800 70032000
 4106   70012800 69995200 70011200 70024000 70035200 69990400
 4100   70030400 70116800 70116800 70080000 70049600 70025600
 4094   70065600 70110400 70105600 70120000 70155200 70166400
 4088   70179200 70168000 70196800 70174400 70121600 70161600
 4082   70158400 70147200 70164800 70164800 70180800 70208000
 4076   70158400 70118400 70236800 70268800 70195200 70187200
 4070   70182400 70241600 70297600 70316800 70275200 70268800
 4064   70337600 70305600 70273600 70344000 70382400 70336000
 4058   70291200 70300800 70348800 70400000 70404800 70400000
 4052   70390400 70347200 70320000 70336000 70380800 70417600
 4046   70465600 70457600 70408000 70401600 70430400 70494400
 4040   70462400 70411200 70459200 70504000 70512000 70547200
 4034   70569600 70582400 70550400 70521600 70540800 70529600
 4028   70528000 70585600 70576000 70508800 70510400 70576000
 4022   70628800 70590400 70558400 70630400 70646400 70569600
 4016   70577600 70627200 70617600 70600000 70648000 70673600
 4010   70646400 70627200 70601600 70616000 70678400 70708800
 4004   70769600 70817600 70747200 70720000 70760000 70787200
 3998   70836800 70798400 70744000 70784000 70769600 70748800
 3992   70748800 70750400 70790400 70809600 70796800 70784000
 3986   70793600 70878400 70936000 70926400 70851200 70857600
 3980   70854400 70828800 70830400 70777600 70811200 70891200
 3974   70854400 70804800 70816000 70856000 70921600 70976000
 3968   70968000 70883200 70840000 70929600 71025600 70974400
 3962   70876800 70862400 70953600 70990400 70972800 70960000
 3956   70990400 71030400 71054400 71012800 70993600 71052800
 3950   71019200 70968000 70976000 71033600 71094400 71084800
 3944   71052800 70988800 70945600 71049600 71137600 71113600
 3938   71091200 71118400 71147200 71123200 71072000 71070400
 3932   70979200 70980800 71097600 71086400 71076800 71185600
 3926   71185600 71032000 71009600 71126400 71160000 71182400
 3920   71054400 71004800 71163200 71040000 70964800 71169600
 3914   71300800 71299200 71254400 71280000 71323200 71280000
 3908   71272000 71283200 71209600 71081600 70889600 70916800
 3902   70979200 70865600 71054400 70854400 70860800 71272000
 3896   71459200 71385600 71260800 71326400 71315200 70961600
 3890   71024000 71345600 71432000 71427200 71163200 70880000
 3884   71160000 71321600 71350400 71214400 70859200 71030400
 3878   71409600 71526400 71521600 71390400 71006400 71049600
 3872   71416000 71393600 70905600 70619200 71094400 71488000
 3866   71550400 71176000 70960000 71262400 71347200 71280000
 3860   71404800 71520000 71542400 71361600 71425600 71691200
 3854   70851200 70313600 70636800 70872000 71350400 71520000
 3848   71614400 71696000 71657600 71651200 71588800 71395200
 3842   71484800 71392000 71209600 71443200 71251200 70900800
 3836   71331200 71428800 71350400 71627200 71584000 71320000
 3830   71563200 71726400 71724800 71616000 71500800 71617600
 3824   71721600 71712000 71494400 70870400 70966400 71454400
 3818   71726400 71782400 71299200 71081600 71598400 71881600
 3812   71926400 71904000 71896000 71923200 71835200 71387200
 3806   71268800 71684800 71814400 71708800 71478400 70990400
 3800   71291200 71784000 71876800 71792000 71609600 71790400
 3794   72019200 72009600 72000000 72027200 72041600 72040000
 3788   72012800 71996800 72000000 71944000 71908800 71971200
 3782   71964800 71968000 71896000 71652800 71795200 72024000
 3776   72100800 72155200 72238400 72177600 72121600 72118400
 3770   71852800 71625600 71974400 72118400 71891200 71718400
 3764   71968000 72115200 72137600 72188800 71977600 71681600
 3758   71816000 71915200 71897600 71966400 71993600 71945600
 3752   71382400 71350400 71654400 71174400 71385600 71852800
 3746   72025600 71788800 70683200 71264000 71921600 71963200
 3740   71878400 71939200 71852800 71724800 71438400 71201600
 3734   71334400 71760000 71720000 71601600 71902400 72056000
 3728   72067200 71976000 71803200 71827200 71990400 72004800
 3722   71830400 71961600 72163200 72096000 72062400 72190400
 3716   72251200 72225600 72240000 72198400 71611200 71542400
 3710   71888000 71737600 71910400 72246400 72289600 72276800
 3704   72312000 72323200 72144000 71974400 72190400 72332800
 3698   72291200 72288000 72305600 72323200 72340800 72363200
 3692   72291200 71862400 71814400 72060800 71732800 71921600
 3686   72342400 72468800 72484800 72475200 72499200 72504000
 3680   72353600 72204800 72318400 72392000 71924800 71206400
 3674   71635200 72273600 72520000 72227200 71756800 71892800
 3668   72137600 72420800 72558400 72641600 72672000 72635200
 3662   72603200 72574400 72560000 72611200 72689600 72588800
 3656   72148800 72164800 72524800 72652800 72540800 72116800
 3650   71774400 71752000 71880000 71897600 72116800 72510400
 3644   72675200 72702400 72649600 72660800 72712000 72668800
 3638   72656000 72673600 72729600 72753600 72590400 72459200
 3632   72630400 72691200 72476800 71848000 71678400 72196800
 3626   72523200 72646400 72728000 72737600 72705600 72622400
 3620   72436800 72193600 72267200 72451200 72688000 72726400
 3614   72670400 72587200 72419200 72660800 72824000 72480000
 3608   72449600 72569600 72649600 72833600 72832000 72808000
 3602   72806400 72756800 72713600 72729600 72732800 72764800
 3596   72662400 72528000 72635200 72732800 72763200 72817600
 3590   72899200 72787200 72536000 72492800 72481600 72712000
 3584   72843200 72820800 72873600 72904000 72820800 72798400
 3578   72859200 72894400 72910400 72902400 72889600 72897600
 3572   72864000 72873600 72905600 72825600 72529600 72384000
 3566   72443200 72571200 72684800 72700800 72784000 72822400
 3560   72753600 72766400 72878400 72880000 72817600 72817600
 3554   72817600 72744000 72683200 72715200 72777600 72771200
 3548   72721600 72633600 72619200 72654400 72668800 72747200
 3542   72814400 72860800 72905600 72881600 72856000 72857600
 3536   72836800 72875200 72963200 72990400 72966400 72956800
 3530   72976000 73008000 72988800 73004800 73044800 73057600
 3524   73089600 73100800 73092800 73168000 73220800 73214400
 3518   73267200 73353600 73339200 73307200 73348800 73408000
 3512   73398400 73363200 73336000 73345600 73424000 73430400
 3506   73420800 73473600 73502400 73459200 73481600 73556800
 3500   73617600 73651200 73683200 73697600 73643200 73652800
 3494   73758400 73780800 73747200 73758400 73800000 73862400
 3488   73843200 73800000 73812800 73841600 73888000 73856000
 3482   73782400 73838400 73926400 73976000 74019200 74020800
 3476   73964800 73985600 74024000 74073600 74067200 74044800
 3470   74060800 74078400 74131200 74158400 74113600 74104000
 3464   74144000 74153600 74118400 74144000 74206400 74233600
 3458   74212800 74225600 74283200 74329600 74347200 74304000
 3452   74305600 74294400 74294400 74313600 74331200 74281600
 3446   74260800 74321600 74339200 74286400 74305600 74390400
 3440   74432000 74422400 74396800 74404800 74409600 74427200
 3434   74499200 74483200 74444800 74491200 74524800 74529600
 3428   74553600 74571200 74598400 74640000 74648000 74609600
 3422   74608000 74643200 74681600 74675200 74630400 74680000
 3416   74697600 74665600 74688000 74761600 74816000 74814400
 3410   74792000 74811200 74846400 74881600 74891200 74849600
 3404   74841600 74926400 74968000 74904000 74894400 74979200
 3398   74956800 74878400 74921600 74947200 74932800 74979200
 3392   74993600 74987200 75028800 75036800 75022400 75052800
 3386   75060800 75068800 75102400 75139200 75134400 75107200
 3380   75140800 75147200 75129600 75217600 75225600 75172800
 3374   75163200 75148800 75185600 75236800 75272000 75260800
 3368   75243200 75249600 75278400 75272000 75227200 75224000
 3362   75259200 75289600 75323200 75340800 75368000 75379200
 3356   75352000 75326400 75337600 75380800 75382400 75414400
 3350   75451200 75424000 75393600 75374400 75411200 75446400
 3344   75441600 75473600 75478400 75443200 75443200 75502400
 3338   75508800 75508800 75510400 75507200 75531200 75566400
 3332   75571200 75572800 75577600 75558400 75555200 75561600
 3326   75555200 75569600 75609600 75625600 75628800 75638400
 3320   75622400 75617600 75617600 75564800 75563200 75622400
 3314   75608000 75603200 75652800 75652800 75676800 75726400
 3308   75734400 75740800 75739200 75724800 75723200 75718400
 3302   75720000 75766400 75774400 75710400 75737600 75811200
 3296   75803200 75790400 75824000 75878400 75905600 75860800
 3290   75822400 75803200 75803200 75844800 75891200 75897600
 3284   75864000 75852800 75915200 75947200 75944000 75950400
 3278   75950400 75918400 75889600 75960000 76004800 75974400
 3272   75977600 75969600 75982400 76035200 76020800 76001600
 3266   76035200 76022400 75976000 75947200 76012800 76070400
 3260   76049600 76041600 76070400 76054400 76027200 76070400
 3254   76105600 76062400 76064000 76083200 76083200 76126400
 3248   76144000 76120000 76139200 76163200 76155200 76171200
 3242   76217600 76193600 76176000 76190400 76148800 76160000
 3236   76188800 76188800 76220800 76241600 76219200 76249600
 3230   76304000 76268800 76272000 76291200 76313600 76353600
 3224   76345600 76323200 76320000 76292800 76302400 76326400
 3218   76352000 76344000 76347200 76371200 76345600 76358400
 3212   76360000 76345600 76392000 76427200 76427200 76419200
 3206   76425600 76417600 76420800 76462400 76467200 76494400
 3200   76518400 76478400 76472000 76491200 76494400 76523200
 3194   76521600 76512000 76544000 76558400 76534400 76496000
 3188   76512000 76544000 76489600 76484800 76531200 76560000
 3182   76614400 76649600 76636800 76595200 76548800 76560000
 3176   76617600 76612800 76585600 76600000 76593600 76625600
 3170   76692800 76667200 76646400 76704000 76728000 76705600
 3164   76697600 76654400 76649600 76716800 76758400 76726400
 3158   76692800 76753600 76768000 76745600 76785600 76801600
 3152   76798400 76835200 76830400 76796800 76763200 76756800
 3146   76790400 76817600 76859200 76883200 76868800 76867200
 3140   76870400 76852800 76876800 76892800 76878400 76865600
 3134   76892800 76864000 76846400 76896000 76892800 76932800
 3128   76966400 76905600 76902400 76960000 77001600 77011200
 3122   76977600 76964800 76977600 76971200 76988800 77004800
 3116   77016000 77020800 77008000 77032000 77041600 77048000
 3110   77054400 77030400 77057600 77059200 77004800 77019200
 3104   77060800 77097600 77110400 77099200 77092800 77070400
 3098   77062400 77086400 77134400 77185600 77198400 77160000
 3092   77160000 77208000 77236800 77214400 77238400 77272000
 3086   77256000 77260800 77289600 77291200 77256000 77230400
 3080   77240000 77268800 77268800 77270400 77334400 77372800
 3074   77342400 77302400 77310400 77384000 77395200 77380800
 3068   77368000 77328000 77360000 77406400 77430400 77459200
 3062   77430400 77412800 77452800 77492800 77496000 77483200
 3056   77507200 77516800 77534400 77553600 77534400 77539200
 3050   77518400 77528000 77558400 77608000 77593600 77587200
 3044   77617600 77603200 77604800 77614400 77587200 77603200
 3038   77648000 77654400 77636800 77619200 77656000 77628800
 3032   77571200 77636800 77704000 77673600 77633600 77636800
 3026   77668800 77700800 77724800 77720000 77705600 77747200
 3020   77801600 77772800 77747200 77768000 77782400 77779200
 3014   77806400 77784000 77782400 77835200 77832000 77801600
 3008   77784000 77800000 77832000 77852800 77838400 77849600
 3002   77896000 77881600 77843200 77873600 77920000 77902400
 2996   77907200 77934400 77929600 77960000 77998400 78001600
 2990   77977600 77974400 77980800 78003200 78020800 78011200
 2984   77977600 77993600 78041600 78032000 78014400 78019200
 2978   78000000 78006400 78028800 78020800 78004800 77993600
 2972   77993600 78017600 78006400 77998400 78008000 78016000
 2966   78030400 78043200 78073600 78084800 78083200 78070400
 2960   78089600 78110400 78124800 78148800 78156800 78126400
 2954   78136000 78196800 78209600 78177600 78198400 78209600
 2948   78169600 78145600 78131200 78110400 78104000 78110400
 2942   78152000 78185600 78176000 78118400 78120000 78148800
 2936   78113600 78112000 78129600 78104000 78118400 78235200
 2930   78262400 78216000 78228800 78304000 78358400 78377600
 2924   78374400 78318400 78355200 78432000 78396800 78403200
 2918   78467200 78478400 78454400 78452800 78489600 78516800
 2912   78542400 78536000 78563200 78648000 78681600 78656000
 2906   78662400 78686400 78680000 78678400 78691200 78734400
 2900   78732800 78744000 78796800 78806400 78793600 78819200
 2894   78835200 78827200 78832000 78843200 78852800 78854400
 2888   78876800 78912000 78910400 78915200 78929600 78907200
 2882   78908800 78932800 78950400 78944000 78958400 78940800
 2876   78945600 78993600 79008000 79012800 79000000 79016000
 2870   79068800 79054400 79030400 78990400 78945600 78980800
 2864   79004800 79025600 79048000 79108800 79132800 79092800
 2858   79105600 79115200 79123200 79196800 79243200 79211200
 2852   79208000 79268800 79286400 79300800 79339200 79294400
 2846   79278400 79342400 79352000 79366400 79416000 79401600
 2840   79380800 79408000 79448000 79484800 79492800 79483200
 2834   79488000 79443200 79473600 79526400 79505600 79513600
 2828   79548800 79547200 79544000 79553600 79572800 79579200
 2822   79622400 79662400 79643200 79614400 79632000 79638400
 2816   79644800 79664000 79672000 79697600 79689600 79673600
 2810   79691200 79718400 79720000 79726400 79760000 79766400
 2804   79756800 79806400 79808000 79748800 79755200 79809600
 2798   79803200 79804800 79838400 79872000 79899200 79875200
 2792   79841600 79862400 79932800 79955200 79888000 79860800
 2786   79878400 79865600 79916800 79992000 79980800 79956800
 2780   79987200 80001600 79988800 79990400 80025600 80033600
 2774   80019200 80046400 80044800 80052800 80060800 80088000
 2768   80100800 80078400 80051200 80080000 80096000 80072000
 2762   80078400 80136000 80168000 80163200 80155200 80132800
 2756   80134400 80187200 80238400 80228800 80174400 80182400
 2750   80230400 80228800 80233600 80240000 80236800 80267200
 2744   80280000 80257600 80249600 80270400 80281600 80313600
 2738   80353600 80337600 80321600 80336000 80356800 80398400
 2732   80382400 80345600 80360000 80364800 80369600 80387200
 2726   80388800 80401600 80428800 80457600 80476800 80456000
 2720   80456000 80462400 80449600 80443200 80486400 80515200
 2714   80504000 80484800 80478400 80492800 80500800 80480000
 2708   80492800 80539200 80524800 80510400 80532800 80515200
 2702   80520000 80548800 80534400 80550400 80540800 80531200
 2696   80553600 80552000 80534400 80521600 80516800 80520000
 2690   80545600 80574400 80564800 80534400 80492800 80513600
 2684   80544000 80523200 80499200 80480000 80475200 80472000
 2678   80446400 80424000 80470400 80516800 80478400 80441600
 2672   80430400 80449600 80422400 80360000 80355200 80356800
 2666   80304000 80281600 80302400 80307200 80249600 80214400
 2660   80225600 80182400 80131200 80145600 80158400 80092800
 2654   80056000 80043200 79958400 79883200 79860800 79816000
 2648   79763200 79715200 79630400 79516800 79438400 79363200
 2642   79238400 79081600 78940800 78782400 78622400 78528000
 2636   78436800 78251200 78035200 77888000 77779200 77672000
 2630   77552000 77464000 77368000 77259200 77188800 77134400
 2624   77056000 76980800 76940800 76873600 76787200 76734400
 2618   76659200 76582400 76568000 76529600 76478400 76430400
 2612   76348800 76292800 76248000 76153600 76099200 76091200
 2606   76051200 76000000 75980800 75902400 75832000 75872000
 2600   75840000 75756800 75723200 75707200 75686400 75620800
 2594   75566400 75553600 75505600 75435200 75395200 75400000
 2588   75342400 75289600 75305600 75312000 75308800 75307200
 2582   75278400 75257600 75262400 75296000 75308800 75284800
 2576   75294400 75353600 75348800 75326400 75340800 75336000
 2570   75344000 75388800 75417600 75388800 75364800 75369600
 2564   75372800 75363200 75353600 75352000 75332800 75332800
 2558   75350400 75328000 75302400 75276800 75262400 75216000
