##TITLE=chlorobenzene
##JCAMP-DX=4.24
##DATA TYPE=INFRARED SPECTRUM
##CLASS=COBLENTZ
##ORIGIN=DOW CHEMICAL COMPANY
##OWNER=Copyright (C) 1987 by the Coblentz Society
Collection (C) 2009 copyright by the U.S. Secretary of Commerce
on behalf of the United States of America. All rights reserved.
##DATE=1964
##NAMES=chlorobenzene
##CAS REGISTRY NO=108-90-7
##MOLFORM=C6 H5 Cl
##SOURCE REFERENCE=COBLENTZ NO. 8822
##$NIST SOURCE=COBLENTZ
##$NIST IMAGE=cob8822
##SPECTROMETER/DATA SYSTEM=DOW KBr FOREPRISM-GRATING
##INSTRUMENT PARAMETERS=GRATING CHANGED AT 5.0, 7.5, 15.0 MICRON
##STATE=GAS
##PARTIAL_PRESSURE=10 mmHg
##PATH LENGTH=10 CM
##SAMPLING PROCEDURE=TRANSMISSION
##RESOLUTION=2
##DATA PROCESSING=DIGITIZED BY COBLENTZ SOCIETY (BATCH II) FROM HARD COPY
##XUNITS=1/CM
##YUNITS=TRANSMITTANCE
##XFACTOR=1.0
##YFACTOR=1
##FIRSTX=456
##LASTX=3776
##FIRSTY=0.8698
##MAXX=3776
##MINX=456
##MAXY=0.8873
##MINY=0.1131
##NPOINTS=3321
##XYDATA=(X++(Y..Y))
456.000000 0.8698 0.8689 0.8676 0.8664 0.8651
461.000000 0.8640 0.8632 0.8624 0.8616 0.8610
466.000000 0.8614 0.8619 0.8628 0.8640 0.8663
471.000000 0.8686 0.8711 0.8737 0.8741 0.8746
476.000000 0.8750 0.8755 0.8759 0.8764 0.8769
481.000000 0.8774 0.8778 0.8783 0.8790 0.8808
486.000000 0.8836 0.8873 0.8871 0.8870 0.8868
491.000000 0.8865 0.8862 0.8859 0.8856 0.8849
496.000000 0.8838 0.8828 0.8803 0.8778 0.8759
501.000000 0.8752 0.8745 0.8739 0.8732 0.8729
506.000000 0.8727 0.8725 0.8724 0.8726 0.8728
511.000000 0.8729 0.8731 0.8729 0.8727 0.8725
516.000000 0.8723 0.8721 0.8702 0.8654 0.8611
521.000000 0.8577 0.8543 0.8527 0.8526 0.8525
526.000000 0.8524 0.8525 0.8527 0.8524 0.8513
531.000000 0.8503 0.8492 0.8482 0.8471 0.8461
536.000000 0.8450 0.8440 0.8430 0.8420 0.8411
541.000000 0.8402 0.8393 0.8393 0.8392 0.8391
546.000000 0.8390 0.8393 0.8399 0.8405 0.8411
551.000000 0.8416 0.8420 0.8424 0.8421 0.8432
556.000000 0.8426 0.8419 0.8412 0.8405 0.8398
561.000000 0.8395 0.8391 0.8388 0.8393 0.8402
566.000000 0.8418 0.8440 0.8462 0.8477 0.8489
571.000000 0.8496 0.8501 0.8507 0.8506 0.8505
576.000000 0.8504 0.8500 0.8494 0.8488 0.8482
581.000000 0.8476 0.8470 0.8464 0.8463 0.8467
586.000000 0.8471 0.8479 0.8486 0.8494 0.8501
591.000000 0.8506 0.8511 0.8516 0.8520 0.8522
596.000000 0.8517 0.8513 0.8508 0.8500 0.8489
601.000000 0.8477 0.8466 0.8462 0.8461 0.8460
606.000000 0.8460 0.8459 0.8458 0.8457 0.8457
611.000000 0.8456 0.8456 0.8457 0.8459 0.8461
616.000000 0.8463 0.8464 0.8466 0.8468 0.8471
621.000000 0.8473 0.8475 0.8478 0.8480 0.8482
626.000000 0.8485 0.8487 0.8489 0.8491 0.8491
631.000000 0.8491 0.8491 0.8491 0.8491 0.8490
636.000000 0.8482 0.8473 0.8464 0.8438 0.8413
641.000000 0.8388 0.8363 0.8336 0.8308 0.8281
646.000000 0.8278 0.8276 0.8276 0.8276 0.8276
651.000000 0.8276 0.8270 0.8262 0.8210 0.8148
656.000000 0.8082 0.8018 0.7956 0.7894 0.7825
661.000000 0.7731 0.7636 0.7543 0.7454 0.7365
666.000000 0.7275 0.7222 0.7174 0.7126 0.7079
671.000000 0.7031 0.6983 0.6944 0.6905 0.6867
676.000000 0.6826 0.6778 0.6729 0.6678 0.6627
681.000000 0.6154 0.4744 0.3794 0.3802 0.4805
686.000000 0.5868 0.6733 0.6750 0.6709 0.6573
691.000000 0.6425 0.6277 0.6128 0.5980 0.5832
696.000000 0.5683 0.5535 0.5427 0.5404 0.5396
701.000000 0.5410 0.5444 0.5479 0.5513 0.5539
706.000000 0.5537 0.5356 0.5097 0.4893 0.4884
711.000000 0.4865 0.5136 0.5513 0.5889 0.6266
716.000000 0.6642 0.6667 0.6679 0.6659 0.6644
721.000000 0.6423 0.6199 0.5974 0.5750 0.5525
726.000000 0.5301 0.5076 0.4924 0.4800 0.4733
731.000000 0.4666 0.4618 0.4571 0.4520 0.4445
736.000000 0.4301 0.3405 0.2338 0.1272 0.1131
741.000000 0.2296 0.3756 0.4576 0.4573 0.4573
746.000000 0.4582 0.4661 0.4750 0.4900 0.5109
751.000000 0.5319 0.5529 0.5739 0.5949 0.6158
756.000000 0.6368 0.6578 0.6788 0.6998 0.7207
761.000000 0.7444 0.7534 0.7624 0.7715 0.7807
766.000000 0.7924 0.7954 0.7983 0.8000 0.8017
771.000000 0.8030 0.8041 0.8052 0.8063 0.8067
776.000000 0.8067 0.8067 0.8067 0.8067 0.8064
781.000000 0.8068 0.8068 0.8068 0.8068 0.8066
786.000000 0.8064 0.8062 0.8060 0.8058 0.8056
791.000000 0.8054 0.8052 0.8050 0.8048 0.8046
796.000000 0.8044 0.8042 0.8041 0.8041 0.8040
801.000000 0.8040 0.8040 0.8039 0.8039 0.8038
806.000000 0.8039 0.8044 0.8049 0.8054 0.8063
811.000000 0.8072 0.8081 0.8081 0.8081 0.8081
816.000000 0.8081 0.8081 0.8081 0.8082 0.8082
821.000000 0.8083 0.8084 0.8085 0.8085 0.8085
826.000000 0.8084 0.8083 0.8083 0.8082 0.8082
831.000000 0.8081 0.8080 0.8079 0.8079 0.8078
836.000000 0.8077 0.8077 0.8076 0.8075 0.8074
841.000000 0.8072 0.8070 0.8069 0.8067 0.8065
846.000000 0.8063 0.8061 0.8059 0.8057 0.8055
851.000000 0.8053 0.8051 0.8049 0.8047 0.8045
856.000000 0.8043 0.8041 0.8039 0.8037 0.8035
861.000000 0.8033 0.8031 0.8029 0.8027 0.8025
866.000000 0.8023 0.8018 0.8013 0.8007 0.8002
871.000000 0.7996 0.7991 0.7985 0.7980 0.7974
876.000000 0.7968 0.7961 0.7955 0.7948 0.7942
881.000000 0.7935 0.7929 0.7923 0.7923 0.7923
886.000000 0.7923 0.7923 0.7926 0.7928 0.7931
891.000000 0.7934 0.7920 0.7893 0.7854 0.7815
896.000000 0.7755 0.7699 0.7652 0.7615 0.7604
901.000000 0.7623 0.7634 0.7688 0.7750 0.7809
906.000000 0.7819 0.7825 0.7831 0.7835 0.7840
911.000000 0.7845 0.7849 0.7851 0.7850 0.7850
916.000000 0.7849 0.7848 0.7848 0.7847 0.7846
921.000000 0.7845 0.7845 0.7845 0.7848 0.7851
926.000000 0.7860 0.7873 0.7886 0.7900 0.7915
931.000000 0.7930 0.7941 0.7953 0.7964 0.7975
936.000000 0.7987 0.7998 0.8009 0.8021 0.8033
941.000000 0.8045 0.8057 0.8066 0.8067 0.8069
946.000000 0.8070 0.8072 0.8073 0.8073 0.8072
951.000000 0.8072 0.8071 0.8071 0.8074 0.8069
956.000000 0.8066 0.8063 0.8060 0.8057 0.8054
961.000000 0.8052 0.8048 0.8044 0.8041 0.8037
966.000000 0.8033 0.8030 0.8026 0.8022 0.8019
971.000000 0.8017 0.8017 0.8017 0.8017 0.8017
976.000000 0.8018 0.8020 0.8021 0.8023 0.8024
981.000000 0.8021 0.8016 0.8010 0.8003 0.7993
986.000000 0.7982 0.7972 0.7962 0.7951 0.7942
991.000000 0.7935 0.7928 0.7921 0.7914 0.7906
996.000000 0.7897 0.7884 0.7871 0.7858 0.7845
1001.000000 0.7832 0.7816 0.7798 0.7779 0.7746
1006.000000 0.7690 0.7630 0.7562 0.7490 0.7415
1011.000000 0.7340 0.7022 0.6644 0.6342 0.6266
1016.000000 0.6225 0.6248 0.6354 0.6479 0.6657
1021.000000 0.6665 0.6517 0.6125 0.6137 0.6575
1026.000000 0.6820 0.6610 0.6446 0.6241 0.6246
1031.000000 0.6469 0.7069 0.7669 0.7930 0.8059
1036.000000 0.8144 0.8158 0.8136 0.8159 0.8153
1041.000000 0.8137 0.8113 0.8089 0.8066 0.8045
1046.000000 0.8023 0.8013 0.8002 0.7985 0.7964
1051.000000 0.7933 0.7903 0.7871 0.7834 0.7797
1056.000000 0.7760 0.7702 0.7643 0.7582 0.7540
1061.000000 0.7543 0.7567 0.7602 0.7615 0.7612
1066.000000 0.7604 0.7581 0.7536 0.7427 0.7277
1071.000000 0.6952 0.6736 0.6593 0.6447 0.6253
1076.000000 0.6057 0.5762 0.5253 0.4745 0.4401
1081.000000 0.4308 0.4230 0.4188 0.4191 0.4176
1086.000000 0.4161 0.4089 0.4016 0.3945 0.3950
1091.000000 0.4223 0.4678 0.4618 0.4467 0.4235
1096.000000 0.4228 0.4429 0.5154 0.5879 0.6604
1101.000000 0.7329 0.7905 0.7904 0.7916 0.7859
1106.000000 0.7832 0.7807 0.7782 0.7695 0.7607
1111.000000 0.7520 0.7432 0.7344 0.7256 0.7168
1116.000000 0.7096 0.7044 0.7016 0.6999 0.7021
1121.000000 0.7028 0.7041 0.7056 0.7075 0.7093
1126.000000 0.7117 0.7149 0.7190 0.7232 0.7416
1131.000000 0.7539 0.7655 0.7776 0.7849 0.7886
1136.000000 0.7919 0.7950 0.7973 0.7988 0.8003
1141.000000 0.8016 0.8034 0.8028 0.8030 0.8028
1146.000000 0.8027 0.8025 0.8021 0.8017 0.8014
1151.000000 0.8011 0.8008 0.8006 0.8004 0.8005
1156.000000 0.8007 0.8008 0.8014 0.8021 0.8022
1161.000000 0.8019 0.8016 0.8012 0.8009 0.8006
1166.000000 0.8004 0.8001 0.7998 0.7996 0.7993
1171.000000 0.7991 0.7989 0.7988 0.7987 0.7986
1176.000000 0.7987 0.7988 0.7989 0.7995 0.8005
1181.000000 0.8014 0.8020 0.8024 0.8028 0.8031
1186.000000 0.8034 0.8036 0.8033 0.8030 0.8027
1191.000000 0.8024 0.8021 0.8018 0.8016 0.8014
1196.000000 0.8013 0.8011 0.8009 0.8008 0.8007
1201.000000 0.8008 0.8008 0.8009 0.8009 0.8010
1206.000000 0.8011 0.8011 0.8010 0.8010 0.8009
1211.000000 0.8009 0.8009 0.8008 0.8008 0.8007
1216.000000 0.8005 0.8002 0.7999 0.7996 0.7993
1221.000000 0.7990 0.7987 0.7984 0.7981 0.7977
1226.000000 0.7973 0.7971 0.7968 0.7965 0.7963
1231.000000 0.7959 0.7955 0.7952 0.7951 0.7951
1236.000000 0.7951 0.7951 0.7951 0.7951 0.7951
1241.000000 0.7951 0.7951 0.7953 0.7956 0.7958
1246.000000 0.7961 0.7963 0.7977 0.7992 0.8007
1251.000000 0.8010 0.8005 0.7999 0.7994 0.7989
1256.000000 0.7987 0.7984 0.7981 0.7978 0.7975
1261.000000 0.7972 0.7968 0.7964 0.7961 0.7961
1266.000000 0.7962 0.7962 0.7963 0.7964 0.7966
1271.000000 0.7969 0.7973 0.7976 0.7980 0.7981
1276.000000 0.7982 0.7982 0.7983 0.7984 0.7983
1281.000000 0.7981 0.7979 0.7977 0.7975 0.7973
1286.000000 0.7971 0.7970 0.7968 0.7966 0.7965
1291.000000 0.7963 0.7962 0.7960 0.7958 0.7957
1296.000000 0.7955 0.7954 0.7952 0.7951 0.7950
1301.000000 0.7949 0.7948 0.7946 0.7945 0.7944
1306.000000 0.7944 0.7944 0.7945 0.7946 0.7947
1311.000000 0.7948 0.7948 0.7949 0.7950 0.7951
1316.000000 0.7951 0.7951 0.7950 0.7950 0.7949
1321.000000 0.7948 0.7948 0.7947 0.7947 0.7946
1326.000000 0.7945 0.7945 0.7942 0.7939 0.7935
1331.000000 0.7932 0.7929 0.7925 0.7922 0.7918
1336.000000 0.7915 0.7911 0.7904 0.7895 0.7887
1341.000000 0.7874 0.7860 0.7846 0.7832 0.7818
1346.000000 0.7804 0.7790 0.7776 0.7762 0.7748
1351.000000 0.7735 0.7721 0.7711 0.7701 0.7691
1356.000000 0.7681 0.7671 0.7670 0.7684 0.7679
1361.000000 0.7688 0.7697 0.7708 0.7720 0.7733
1366.000000 0.7756 0.7783 0.7813 0.7844 0.7874
1371.000000 0.7904 0.7939 0.7975 0.8011 0.8048
1376.000000 0.8087 0.8126 0.8153 0.8174 0.8175
1381.000000 0.8175 0.8168 0.8162 0.8147 0.8111
1386.000000 0.8063 0.8035 0.8019 0.8005 0.8001
1391.000000 0.7999 0.7999 0.8001 0.8004 0.8006
1396.000000 0.8009 0.8012 0.8015 0.8018 0.8019
1401.000000 0.8019 0.8020 0.8021 0.8021 0.8022
1406.000000 0.8020 0.8017 0.8015 0.8012 0.8009
1411.000000 0.8006 0.7996 0.7987 0.7978 0.7969
1416.000000 0.7959 0.7948 0.7937 0.7926 0.7915
1421.000000 0.7903 0.7885 0.7867 0.7849 0.7831
1426.000000 0.7813 0.7776 0.7737 0.7696 0.7654
1431.000000 0.7608 0.7514 0.7423 0.7336 0.7252
1436.000000 0.7170 0.7110 0.7052 0.7018 0.7000
1441.000000 0.7002 0.7014 0.7033 0.7092 0.7171
1446.000000 0.7213 0.7222 0.7241 0.7150 0.7093
1451.000000 0.7087 0.7087 0.7135 0.7260 0.7364
1456.000000 0.7476 0.7568 0.7623 0.7647 0.7661
1461.000000 0.7674 0.7656 0.7626 0.7564 0.7437
1466.000000 0.7264 0.6975 0.6278 0.5556 0.4834
1471.000000 0.4257 0.4113 0.4002 0.3962 0.3948
1476.000000 0.3959 0.3962 0.3997 0.4095 0.3833
1481.000000 0.3524 0.3504 0.4382 0.4400 0.3969
1486.000000 0.3746 0.3767 0.3851 0.3952 0.4206
1491.000000 0.5297 0.6387 0.7307 0.7475 0.7515
1496.000000 0.7552 0.7574 0.7595 0.7614 0.7632
1501.000000 0.7650 0.7667 0.7684 0.7701 0.7720
1506.000000 0.7739 0.7762 0.7786 0.7808 0.7828
1511.000000 0.7847 0.7868 0.7891 0.7914 0.7937
1516.000000 0.7954 0.7969 0.7985 0.8001 0.8007
1521.000000 0.8012 0.8018 0.8021 0.8019 0.8017
1526.000000 0.8016 0.8014 0.8012 0.8033 0.8009
1531.000000 0.8007 0.8005 0.8002 0.7999 0.7996
1536.000000 0.7991 0.7986 0.7981 0.7976 0.7970
1541.000000 0.7961 0.7949 0.7936 0.7924 0.7912
1546.000000 0.7899 0.7881 0.7859 0.7837 0.7806
1551.000000 0.7773 0.7741 0.7715 0.7690 0.7677
1556.000000 0.7668 0.7660 0.7650 0.7639 0.7628
1561.000000 0.7617 0.7606 0.7595 0.7580 0.7566
1566.000000 0.7551 0.7528 0.7490 0.7436 0.7338
1571.000000 0.7184 0.7031 0.6878 0.6724 0.6571
1576.000000 0.6418 0.6264 0.6111 0.5957 0.5804
1581.000000 0.5671 0.5548 0.5402 0.5299 0.5147
1586.000000 0.4981 0.4934 0.4938 0.5071 0.5245
1591.000000 0.5419 0.5593 0.5767 0.5941 0.6115
1596.000000 0.6289 0.6463 0.6608 0.6700 0.6867
1601.000000 0.7124 0.7382 0.7561 0.7620 0.7653
1606.000000 0.7677 0.7686 0.7687 0.7687 0.7674
1611.000000 0.7660 0.7648 0.7637 0.7633 0.7629
1616.000000 0.7628 0.7627 0.7625 0.7627 0.7628
1621.000000 0.7630 0.7635 0.7639 0.7647 0.7657
1626.000000 0.7666 0.7679 0.7693 0.7707 0.7721
1631.000000 0.7737 0.7755 0.7773 0.7791 0.7807
1636.000000 0.7823 0.7830 0.7834 0.7838 0.7842
1641.000000 0.7847 0.7847 0.7847 0.7847 0.7849
1646.000000 0.7852 0.7857 0.7862 0.7877 0.7893
1651.000000 0.7907 0.7918 0.7923 0.7928 0.7933
1656.000000 0.7936 0.7938 0.7941 0.7943 0.7945
1661.000000 0.7945 0.7946 0.7947 0.7948 0.7948
1666.000000 0.7948 0.7947 0.7946 0.7945 0.7945
1671.000000 0.7946 0.7946 0.7947 0.7948 0.7948
1676.000000 0.7949 0.7949 0.7950 0.7950 0.7950
1681.000000 0.7951 0.7951 0.7952 0.7952 0.7952
1686.000000 0.7953 0.7953 0.7953 0.7952 0.7950
1691.000000 0.7948 0.7947 0.7945 0.7943 0.7941
1696.000000 0.7935 0.7930 0.7925 0.7919 0.7913
1701.000000 0.7906 0.7900 0.7892 0.7883 0.7874
1706.000000 0.7867 0.7860 0.7851 0.7842 0.7834
1711.000000 0.7825 0.7817 0.7811 0.7805 0.7799
1716.000000 0.7793 0.7788 0.7783 0.7779 0.7775
1721.000000 0.7771 0.7772 0.7773 0.7775 0.7779
1726.000000 0.7782 0.7786 0.7790 0.7795 0.7800
1731.000000 0.7809 0.7821 0.7834 0.7847 0.7860
1736.000000 0.7872 0.7885 0.7898 0.7910 0.7915
1741.000000 0.7917 0.7919 0.7921 0.7923 0.7925
1746.000000 0.7926 0.7925 0.7924 0.7924 0.7923
1751.000000 0.7922 0.7922 0.7921 0.7920 0.7919
1756.000000 0.7919 0.7918 0.7917 0.7916 0.7915
1761.000000 0.7914 0.7912 0.7910 0.7908 0.7906
1766.000000 0.7904 0.7902 0.7897 0.7883 0.7869
1771.000000 0.7855 0.7833 0.7811 0.7791 0.7774
1776.000000 0.7756 0.7739 0.7723 0.7715 0.7707
1781.000000 0.7699 0.7692 0.7689 0.7685 0.7681
1786.000000 0.7708 0.7676 0.7675 0.7674 0.7683
1791.000000 0.7693 0.7704 0.7716 0.7736 0.7756
1796.000000 0.7777 0.7798 0.7820 0.7841 0.7859
1801.000000 0.7876 0.7894 0.7906 0.7919 0.7928
1806.000000 0.7933 0.7938 0.7943 0.7949 0.7951
1811.000000 0.7952 0.7954 0.7956 0.7957 0.7957
1816.000000 0.7957 0.7957 0.7957 0.7957 0.7957
1821.000000 0.7957 0.7956 0.7955 0.7955 0.7954
1826.000000 0.7953 0.7953 0.7952 0.7951 0.7950
1831.000000 0.7949 0.7947 0.7946 0.7944 0.7942
1836.000000 0.7941 0.7939 0.7937 0.7936 0.7934
1841.000000 0.7933 0.7929 0.7922 0.7915 0.7909
1846.000000 0.7902 0.7890 0.7878 0.7865 0.7852
1851.000000 0.7837 0.7822 0.7809 0.7797 0.7789
1856.000000 0.7784 0.7778 0.7772 0.7766 0.7760
1861.000000 0.7760 0.7763 0.7763 0.7767 0.7769
1866.000000 0.7772 0.7777 0.7783 0.7789 0.7794
1871.000000 0.7800 0.7806 0.7811 0.7819 0.7825
1876.000000 0.7831 0.7836 0.7840 0.7829 0.7819
1881.000000 0.7810 0.7800 0.7801 0.7816 0.7857
1886.000000 0.7898 0.7934 0.7965 0.7986 0.8006
1891.000000 0.8016 0.8022 0.8024 0.8026 0.8027
1896.000000 0.8027 0.8027 0.8026 0.8023 0.8021
1901.000000 0.8018 0.8015 0.8009 0.8004 0.7999
1906.000000 0.7994 0.7989 0.7984 0.7979 0.7973
1911.000000 0.7967 0.7960 0.7954 0.7947 0.7941
1916.000000 0.7934 0.7928 0.7918 0.7909 0.7900
1921.000000 0.7890 0.7881 0.7865 0.7845 0.7826
1926.000000 0.7812 0.7809 0.7806 0.7806 0.7807
1931.000000 0.7807 0.7808 0.7809 0.7807 0.7802
1936.000000 0.7796 0.7786 0.7772 0.7758 0.7745
1941.000000 0.7731 0.7723 0.7720 0.7717 0.7721
1946.000000 0.7724 0.7727 0.7731 0.7739 0.7765
1951.000000 0.7789 0.7814 0.7835 0.7855 0.7865
1956.000000 0.7873 0.7880 0.7880 0.7880 0.7880
1961.000000 0.7881 0.7883 0.7884 0.7898 0.7912
1966.000000 0.7928 0.7941 0.7950 0.7959 0.7967
1971.000000 0.7970 0.7974 0.7978 0.7981 0.7985
1976.000000 0.7986 0.7987 0.7988 0.7989 0.7990
1981.000000 0.7991 0.7993 0.7993 0.7993 0.7992
1986.000000 0.7992 0.7991 0.7990 0.7990 0.7988
1991.000000 0.7987 0.7986 0.7985 0.7984 0.7983
1996.000000 0.7983 0.7983 0.7983 0.7983 0.7983
2001.000000 0.7983 0.7983 0.7984 0.7985 0.7985
2006.000000 0.7986 0.7987 0.7988 0.7989 0.7990
2011.000000 0.7992 0.7995 0.7999 0.8003 0.8011
2016.000000 0.8019 0.8026 0.8034 0.8039 0.8045
2021.000000 0.8047 0.8049 0.8051 0.8053 0.8055
2026.000000 0.8057 0.8055 0.8054 0.8052 0.8050
2031.000000 0.8048 0.8047 0.8045 0.8043 0.8040
2036.000000 0.8038 0.8035 0.8032 0.8028 0.8025
2041.000000 0.8022 0.8019 0.8017 0.8015 0.8013
2046.000000 0.8012 0.8010 0.8008 0.8006 0.8005
2051.000000 0.8005 0.8006 0.8007 0.8009 0.8010
2056.000000 0.8012 0.8013 0.8014 0.8015 0.8016
2061.000000 0.8017 0.8018 0.8019 0.8020 0.8021
2066.000000 0.8022 0.8023 0.8024 0.8024 0.8025
2071.000000 0.8025 0.8026 0.8027 0.8028 0.8028
2076.000000 0.8029 0.8030 0.8031 0.8031 0.8032
2081.000000 0.8033 0.8034 0.8034 0.8035 0.8036
2086.000000 0.8037 0.8037 0.8038 0.8039 0.8040
2091.000000 0.8041 0.8042 0.8042 0.8043 0.8044
2096.000000 0.8045 0.8045 0.8046 0.8047 0.8048
2101.000000 0.8049 0.8050 0.8051 0.8052 0.8052
2106.000000 0.8053 0.8054 0.8055 0.8056 0.8057
2111.000000 0.8057 0.8058 0.8059 0.8060 0.8061
2116.000000 0.8062 0.8063 0.8064 0.8064 0.8064
2121.000000 0.8064 0.8065 0.8065 0.8066 0.8066
2126.000000 0.8066 0.8066 0.8067 0.8067 0.8067
2131.000000 0.8067 0.8068 0.8068 0.8069 0.8069
2136.000000 0.8069 0.8069 0.8070 0.8070 0.8071
2141.000000 0.8071 0.8071 0.8071 0.8072 0.8072
2146.000000 0.8072 0.8072 0.8072 0.8072 0.8072
2151.000000 0.8072 0.8072 0.8072 0.8072 0.8072
2156.000000 0.8072 0.8072 0.8072 0.8072 0.8073
2161.000000 0.8073 0.8073 0.8073 0.8073 0.8073
2166.000000 0.8073 0.8073 0.8073 0.8073 0.8073
2171.000000 0.8073 0.8073 0.8073 0.8073 0.8073
2176.000000 0.8073 0.8073 0.8073 0.8073 0.8073
2181.000000 0.8073 0.8073 0.8073 0.8073 0.8073
2186.000000 0.8073 0.8073 0.8073 0.8073 0.8073
2191.000000 0.8073 0.8073 0.8073 0.8073 0.8073
2196.000000 0.8074 0.8074 0.8074 0.8074 0.8074
2201.000000 0.8074 0.8074 0.8074 0.8074 0.8074
2206.000000 0.8074 0.8074 0.8074 0.8074 0.8074
2211.000000 0.8074 0.8074 0.8074 0.8074 0.8074
2216.000000 0.8075 0.8075 0.8075 0.8075 0.8076
2221.000000 0.8076 0.8077 0.8077 0.8078 0.8078
2226.000000 0.8078 0.8078 0.8079 0.8079 0.8080
2231.000000 0.8080 0.8080 0.8080 0.8081 0.8081
2236.000000 0.8082 0.8082 0.8082 0.8082 0.8083
2241.000000 0.8083 0.8084 0.8084 0.8085 0.8085
2246.000000 0.8085 0.8085 0.8086 0.8086 0.8087
2251.000000 0.8086 0.8102 0.8086 0.8086 0.8085
2256.000000 0.8085 0.8085 0.8085 0.8084 0.8084
2261.000000 0.8084 0.8084 0.8083 0.8083 0.8083
2266.000000 0.8083 0.8082 0.8082 0.8082 0.8082
2271.000000 0.8081 0.8081 0.8081 0.8081 0.8080
2276.000000 0.8080 0.8080 0.8080 0.8079 0.8079
2281.000000 0.8079 0.8079 0.8079 0.8079 0.8078
2286.000000 0.8078 0.8078 0.8078 0.8078 0.8078
2291.000000 0.8077 0.8077 0.8077 0.8077 0.8077
2296.000000 0.8077 0.8078 0.8080 0.8082 0.8084
2301.000000 0.8086 0.8088 0.8090 0.8092 0.8097
2306.000000 0.8102 0.8107 0.8112 0.8117 0.8123
2311.000000 0.8127 0.8131 0.8134 0.8138 0.8142
2316.000000 0.8146 0.8150 0.8154 0.8157 0.8161
2321.000000 0.8164 0.8167 0.8170 0.8173 0.8172
2326.000000 0.8172 0.8171 0.8171 0.8170 0.8169
2331.000000 0.8168 0.8167 0.8166 0.8165 0.8162
2336.000000 0.8160 0.8157 0.8155 0.8152 0.8150
2341.000000 0.8146 0.8142 0.8137 0.8132 0.8127
2346.000000 0.8122 0.8117 0.8113 0.8107 0.8102
2351.000000 0.8096 0.8090 0.8084 0.8078 0.8072
2356.000000 0.8066 0.8060 0.8054 0.8049 0.8044
2361.000000 0.8038 0.8033 0.8027 0.8022 0.8017
2366.000000 0.8012 0.8009 0.8006 0.8003 0.8000
2371.000000 0.7997 0.7994 0.7991 0.7988 0.7989
2376.000000 0.7990 0.7995 0.8000 0.8006 0.8012
2381.000000 0.8018 0.8025 0.8027 0.8030 0.8030
2386.000000 0.8031 0.8032 0.8033 0.8033 0.8034
2391.000000 0.8034 0.8035 0.8035 0.8035 0.8035
2396.000000 0.8036 0.8036 0.8037 0.8036 0.8036
2401.000000 0.8036 0.8036 0.8035 0.8035 0.8035
2406.000000 0.8035 0.8034 0.8034 0.8033 0.8033
2411.000000 0.8032 0.8032 0.8031 0.8031 0.8030
2416.000000 0.8030 0.8029 0.8029 0.8028 0.8027
2421.000000 0.8026 0.8026 0.8026 0.8027 0.8027
2426.000000 0.8027 0.8027 0.8028 0.8028 0.8029
2431.000000 0.8029 0.8030 0.8030 0.8030 0.8030
2436.000000 0.8030 0.8030 0.8030 0.8030 0.8030
2441.000000 0.8030 0.8030 0.8030 0.8030 0.8030
2446.000000 0.8031 0.8030 0.8030 0.8030 0.8030
2451.000000 0.8030 0.8030 0.8029 0.8029 0.8029
2456.000000 0.8029 0.8029 0.8029 0.8028 0.8028
2461.000000 0.8028 0.8028 0.8028 0.8028 0.8028
2466.000000 0.8028 0.8027 0.8027 0.8026 0.8026
2471.000000 0.8025 0.8024 0.8023 0.8022 0.8021
2476.000000 0.8021 0.8020 0.8019 0.8018 0.8018
2481.000000 0.8017 0.8016 0.8015 0.8014 0.8013
2486.000000 0.8013 0.8011 0.8010 0.8008 0.8007
