##TITLE=n-Heptane
##JCAMP-DX=4.24
##DATA TYPE=INFRARED SPECTRUM
##CLASS=COBLENTZ
##ORIGIN=DOW CHEMICAL COMPANY
##OWNER=Copyright (C) 1987 by the Coblentz Society
Collection (C) 2009 copyright by the U.S. Secretary of Commerce
on behalf of the United States of America. All rights reserved.
##DATE=1964
##NAMES=heptane
##CAS REGISTRY NO=142-82-5
##MOLFORM=C7 H16
##SOURCE REFERENCE=COBLENTZ NO. 8870
##$NIST SOURCE=COBLENTZ
##$NIST IMAGE=cob8870
##SPECTROMETER/DATA SYSTEM=DOW KBr FOREPRISM-GRATING
##INSTRUMENT PARAMETERS=GRATING CHANGED AT 5.0, 7.5, 15.0 MICRON
##STATE=GAS (30 mmHg, N2 ADDED, TOTAL PRESSURE 600 mmHg)
##PATH LENGTH=5 CM
##SAMPLING PROCEDURE=TRANSMISSION
##RESOLUTION=2
##DATA PROCESSING=DIGITIZED BY COBLENTZ SOCIETY (BATCH II) FROM HARD COPY
##XUNITS=1/CM
##YUNITS=TRANSMITTANCE
##XFACTOR=1.0
##YFACTOR=1
##FIRSTX=456
##LASTX=3792
##FIRSTY=0.8632
##MAXX=3792
##MINX=456
##MAXY=0.8986
##MINY=0.0124
##NPOINTS=3337
##XYDATA=(X++(Y..Y))
456.000000 0.8632 0.8628 0.8623 0.8618 0.8614
461.000000 0.8609 0.8604 0.8603 0.8602 0.8601
466.000000 0.8600 0.8598 0.8596 0.8594 0.8592
471.000000 0.8590 0.8589 0.8589 0.8590 0.8590
476.000000 0.8590 0.8591 0.8591 0.8592 0.8592
481.000000 0.8592 0.8591 0.8589 0.8588 0.8586
486.000000 0.8585 0.8583 0.8582 0.8580 0.8579
491.000000 0.8577 0.8576 0.8574 0.8573 0.8572
496.000000 0.8571 0.8570 0.8569 0.8567 0.8566
501.000000 0.8565 0.8564 0.8563 0.8562 0.8561
506.000000 0.8560 0.8559 0.8558 0.8557 0.8556
511.000000 0.8555 0.8554 0.8553 0.8554 0.8554
516.000000 0.8555 0.8555 0.8556 0.8556 0.8557
521.000000 0.8558 0.8558 0.8559 0.8559 0.8560
526.000000 0.8560 0.8562 0.8564 0.8566 0.8568
531.000000 0.8570 0.8573 0.8575 0.8577 0.8579
536.000000 0.8581 0.8583 0.8586 0.8588 0.8590
541.000000 0.8592 0.8594 0.8596 0.8598 0.8601
546.000000 0.8604 0.8607 0.8610 0.8613 0.8616
551.000000 0.8618 0.8621 0.8624 0.8627 0.8630
556.000000 0.8633 0.8636 0.8639 0.8642 0.8645
561.000000 0.8647 0.8649 0.8651 0.8654 0.8656
566.000000 0.8658 0.8660 0.8662 0.8665 0.8667
571.000000 0.8669 0.8671 0.8665 0.8676 0.8678
576.000000 0.8680 0.8682 0.8685 0.8687 0.8689
581.000000 0.8691 0.8693 0.8696 0.8698 0.8700
586.000000 0.8702 0.8705 0.8707 0.8709 0.8712
591.000000 0.8714 0.8717 0.8719 0.8721 0.8723
596.000000 0.8725 0.8728 0.8730 0.8732 0.8734
601.000000 0.8736 0.8738 0.8740 0.8742 0.8742
606.000000 0.8742 0.8742 0.8742 0.8742 0.8741
611.000000 0.8741 0.8741 0.8741 0.8741 0.8741
616.000000 0.8741 0.8741 0.8741 0.8741 0.8741
621.000000 0.8741 0.8741 0.8741 0.8741 0.8741
626.000000 0.8741 0.8741 0.8741 0.8741 0.8741
631.000000 0.8741 0.8741 0.8741 0.8741 0.8741
636.000000 0.8741 0.8741 0.8741 0.8741 0.8742
641.000000 0.8743 0.8744 0.8745 0.8746 0.8747
646.000000 0.8748 0.8750 0.8751 0.8752 0.8752
651.000000 0.8751 0.8750 0.8748 0.8747 0.8746
656.000000 0.8744 0.8743 0.8742 0.8740 0.8739
661.000000 0.8738 0.8738 0.8740 0.8743 0.8745
666.000000 0.8747 0.8757 0.8774 0.8797 0.8822
671.000000 0.8834 0.8825 0.8805 0.8780 0.8755
676.000000 0.8730 0.8725 0.8725 0.8725 0.8725
681.000000 0.8725 0.8724 0.8723 0.8722 0.8721
686.000000 0.8718 0.8714 0.8710 0.8706 0.8702
691.000000 0.8698 0.8692 0.8686 0.8680 0.8674
696.000000 0.8666 0.8657 0.8647 0.8638 0.8628
701.000000 0.8610 0.8595 0.8580 0.8566 0.8551
706.000000 0.8530 0.8507 0.8483 0.8448 0.8411
711.000000 0.8374 0.8335 0.8293 0.8251 0.8206
716.000000 0.8146 0.8094 0.8050 0.8005 0.7961
721.000000 0.7918 0.7881 0.7867 0.7867 0.7879
726.000000 0.7880 0.7890 0.7908 0.7931 0.7963
731.000000 0.7998 0.8035 0.8076 0.8116 0.8155
736.000000 0.8193 0.8232 0.8267 0.8295 0.8311
741.000000 0.8327 0.8343 0.8357 0.8369 0.8381
746.000000 0.8394 0.8406 0.8418 0.8429 0.8441
751.000000 0.8452 0.8464 0.8472 0.8479 0.8486
756.000000 0.8492 0.8497 0.8503 0.8508 0.8514
761.000000 0.8518 0.8517 0.8516 0.8514 0.8511
766.000000 0.8508 0.8504 0.8501 0.8497 0.8493
771.000000 0.8488 0.8482 0.8476 0.8470 0.8464
776.000000 0.8460 0.8456 0.8452 0.8449 0.8459
781.000000 0.8468 0.8478 0.8488 0.8500 0.8513
786.000000 0.8526 0.8542 0.8557 0.8573 0.8590
791.000000 0.8607 0.8625 0.8642 0.8664 0.8685
796.000000 0.8706 0.8727 0.8743 0.8759 0.8777
801.000000 0.8777 0.8777 0.8777 0.8777 0.8777
806.000000 0.8777 0.8777 0.8777 0.8777 0.8777
811.000000 0.8777 0.8775 0.8772 0.8770 0.8767
816.000000 0.8765 0.8763 0.8760 0.8758 0.8756
821.000000 0.8755 0.8754 0.8753 0.8751 0.8750
826.000000 0.8749 0.8748 0.8747 0.8746 0.8744
831.000000 0.8743 0.8742 0.8741 0.8740 0.8739
836.000000 0.8738 0.8739 0.8740 0.8741 0.8742
841.000000 0.8743 0.8744 0.8745 0.8750 0.8757
846.000000 0.8761 0.8761 0.8761 0.8761 0.8761
851.000000 0.8760 0.8757 0.8755 0.8752 0.8748
856.000000 0.8744 0.8739 0.8735 0.8731 0.8727
861.000000 0.8722 0.8715 0.8708 0.8701 0.8695
866.000000 0.8690 0.8684 0.8679 0.8673 0.8668
871.000000 0.8662 0.8658 0.8656 0.8653 0.8651
876.000000 0.8648 0.8646 0.8643 0.8640 0.8638
881.000000 0.8635 0.8633 0.8631 0.8630 0.8628
886.000000 0.8627 0.8625 0.8623 0.8622 0.8618
891.000000 0.8611 0.8603 0.8596 0.8588 0.8581
896.000000 0.8574 0.8567 0.8559 0.8552 0.8547
901.000000 0.8547 0.8547 0.8550 0.8557 0.8563
906.000000 0.8570 0.8578 0.8587 0.8596 0.8607
911.000000 0.8619 0.8631 0.8643 0.8656 0.8670
916.000000 0.8679 0.8689 0.8693 0.8688 0.8682
921.000000 0.8675 0.8669 0.8662 0.8655 0.8644
926.000000 0.8634 0.8624 0.8614 0.8604 0.8594
931.000000 0.8584 0.8581 0.8579 0.8578 0.8576
936.000000 0.8575 0.8574 0.8575 0.8577 0.8582
941.000000 0.8589 0.8597 0.8605 0.8613 0.8622
946.000000 0.8630 0.8638 0.8648 0.8659 0.8671
951.000000 0.8682 0.8693 0.8702 0.8712 0.8720
956.000000 0.8728 0.8735 0.8743 0.8750 0.8758
961.000000 0.8765 0.8770 0.8775 0.8780 0.8785
966.000000 0.8790 0.8796 0.8803 0.8809 0.8815
971.000000 0.8822 0.8828 0.8834 0.8838 0.8843
976.000000 0.8847 0.8851 0.8856 0.8857 0.8857
981.000000 0.8858 0.8859 0.8859 0.8860 0.8860
986.000000 0.8860 0.8860 0.8860 0.8859 0.8857
991.000000 0.8856 0.8854 0.8853 0.8851 0.8850
996.000000 0.8848 0.8846 0.8844 0.8843 0.8841
1001.000000 0.8839 0.8837 0.8836 0.8834 0.8832
1006.000000 0.8829 0.8827 0.8825 0.8823 0.8821
1011.000000 0.8819 0.8817 0.8816 0.8814 0.8813
1016.000000 0.8813 0.8813 0.8813 0.8813 0.8813
1021.000000 0.8814 0.8816 0.8818 0.8819 0.8821
1026.000000 0.8823 0.8825 0.8832 0.8838 0.8844
1031.000000 0.8852 0.8860 0.8868 0.8876 0.8884
1036.000000 0.8890 0.8895 0.8900 0.8904 0.8907
1041.000000 0.8910 0.8911 0.8913 0.8912 0.8911
1046.000000 0.8910 0.8908 0.8905 0.8902 0.8899
1051.000000 0.8896 0.8894 0.8891 0.8886 0.8879
1056.000000 0.8872 0.8865 0.8857 0.8848 0.8838
1061.000000 0.8829 0.8820 0.8811 0.8802 0.8792
1066.000000 0.8779 0.8766 0.8754 0.8741 0.8728
1071.000000 0.8715 0.8703 0.8691 0.8679 0.8667
1076.000000 0.8655 0.8643 0.8641 0.8631 0.8630
1081.000000 0.8636 0.8642 0.8649 0.8658 0.8667
1086.000000 0.8676 0.8685 0.8697 0.8709 0.8721
1091.000000 0.8733 0.8745 0.8762 0.8782 0.8801
1096.000000 0.8820 0.8831 0.8842 0.8853 0.8864
1101.000000 0.8872 0.8879 0.8886 0.8894 0.8901
1106.000000 0.8909 0.8917 0.8925 0.8932 0.8936
1111.000000 0.8940 0.8943 0.8947 0.8951 0.8952
1116.000000 0.8986 0.8955 0.8956 0.8958 0.8955
1121.000000 0.8949 0.8943 0.8933 0.8924 0.8914
1126.000000 0.8904 0.8893 0.8878 0.8863 0.8848
1131.000000 0.8833 0.8815 0.8797 0.8781 0.8768
1136.000000 0.8755 0.8742 0.8729 0.8722 0.8718
1141.000000 0.8714 0.8710 0.8702 0.8716 0.8719
1146.000000 0.8725 0.8730 0.8740 0.8754 0.8768
1151.000000 0.8782 0.8800 0.8818 0.8834 0.8844
1156.000000 0.8855 0.8863 0.8871 0.8877 0.8882
1161.000000 0.8887 0.8892 0.8897 0.8902 0.8905
1166.000000 0.8908 0.8910 0.8912 0.8915 0.8915
1171.000000 0.8915 0.8914 0.8911 0.8907 0.8904
1176.000000 0.8901 0.8898 0.8894 0.8887 0.8881
1181.000000 0.8874 0.8869 0.8876 0.8884 0.8893
1186.000000 0.8906 0.8924 0.8939 0.8945 0.8950
1191.000000 0.8955 0.8959 0.8959 0.8954 0.8949
1196.000000 0.8943 0.8935 0.8926 0.8918 0.8910
1201.000000 0.8900 0.8890 0.8880 0.8870 0.8862
1206.000000 0.8856 0.8850 0.8844 0.8838 0.8832
1211.000000 0.8829 0.8828 0.8827 0.8826 0.8827
1216.000000 0.8829 0.8831 0.8833 0.8835 0.8836
1221.000000 0.8838 0.8840 0.8843 0.8849 0.8855
1226.000000 0.8860 0.8864 0.8868 0.8872 0.8870
1231.000000 0.8862 0.8846 0.8828 0.8811 0.8793
1236.000000 0.8775 0.8758 0.8742 0.8725 0.8709
1241.000000 0.8695 0.8685 0.8680 0.8679 0.8677
1246.000000 0.8674 0.8673 0.8672 0.8671 0.8670
1251.000000 0.8670 0.8671 0.8672 0.8673 0.8673
1256.000000 0.8673 0.8673 0.8673 0.8670 0.8666
1261.000000 0.8661 0.8657 0.8652 0.8648 0.8644
1266.000000 0.8640 0.8636 0.8629 0.8622 0.8614
1271.000000 0.8607 0.8599 0.8592 0.8584 0.8575
1276.000000 0.8567 0.8559 0.8550 0.8542 0.8532
1281.000000 0.8522 0.8512 0.8501 0.8491 0.8483
1286.000000 0.8477 0.8470 0.8464 0.8459 0.8458
1291.000000 0.8456 0.8459 0.8462 0.8464 0.8464
1296.000000 0.8462 0.8457 0.8451 0.8442 0.8432
1301.000000 0.8423 0.8411 0.8399 0.8388 0.8376
1306.000000 0.8366 0.8356 0.8347 0.8343 0.8339
1311.000000 0.8312 0.8331 0.8328 0.8344 0.8359
1316.000000 0.8375 0.8391 0.8404 0.8417 0.8430
1321.000000 0.8444 0.8460 0.8476 0.8491 0.8500
1326.000000 0.8507 0.8509 0.8507 0.8521 0.8494
1331.000000 0.8484 0.8473 0.8460 0.8443 0.8425
1336.000000 0.8408 0.8381 0.8351 0.8314 0.8276
1341.000000 0.8238 0.8132 0.8033 0.8006 0.7992
1346.000000 0.7978 0.7969 0.7960 0.7956 0.7947
1351.000000 0.7952 0.7955 0.7965 0.7980 0.8010
1356.000000 0.8064 0.8116 0.8163 0.8199 0.8218
1361.000000 0.8224 0.8226 0.8257 0.8218 0.8212
1366.000000 0.8196 0.8176 0.8156 0.8134 0.8111
1371.000000 0.8062 0.8012 0.7960 0.7902 0.7843
1376.000000 0.7762 0.7669 0.7567 0.7455 0.7339
1381.000000 0.7213 0.7062 0.6879 0.6767 0.6740
1386.000000 0.6733 0.6726 0.6721 0.6719 0.6718
1391.000000 0.6714 0.6758 0.6842 0.6946 0.7028
1396.000000 0.7091 0.7161 0.7239 0.7354 0.7536
1401.000000 0.7686 0.7805 0.7900 0.7978 0.8043
1406.000000 0.8097 0.8150 0.8185 0.8220 0.8252
1411.000000 0.8275 0.8297 0.8316 0.8330 0.8343
1416.000000 0.8357 0.8360 0.8363 0.8366 0.8369
1421.000000 0.8372 0.8380 0.8367 0.8363 0.8351
1426.000000 0.8337 0.8320 0.8303 0.8287 0.8263
1431.000000 0.8234 0.8206 0.8177 0.8144 0.8109
1436.000000 0.8074 0.8039 0.7999 0.7953 0.7908
1441.000000 0.7856 0.7794 0.7702 0.7575 0.7448
1446.000000 0.7321 0.7194 0.7067 0.6940 0.6813
1451.000000 0.6686 0.6559 0.6432 0.6305 0.6178
1456.000000 0.6067 0.5945 0.5780 0.5667 0.5558
1461.000000 0.5447 0.5325 0.5200 0.5069 0.4975
1466.000000 0.4889 0.4822 0.4763 0.4712 0.4709
1471.000000 0.4682 0.4719 0.4731 0.4757 0.4850
1476.000000 0.5018 0.5122 0.5290 0.5457 0.5624
1481.000000 0.5791 0.5958 0.6126 0.6293 0.6460
1486.000000 0.6627 0.6794 0.6962 0.7129 0.7296
1491.000000 0.7456 0.7589 0.7683 0.7740 0.7785
1496.000000 0.7830 0.7874 0.7918 0.7977 0.8036
1501.000000 0.8079 0.8128 0.8190 0.8227 0.8263
1506.000000 0.8290 0.8312 0.8335 0.8352 0.8366
1511.000000 0.8381 0.8397 0.8406 0.8416 0.8424
1516.000000 0.8429 0.8435 0.8440 0.8445 0.8449
1521.000000 0.8452 0.8456 0.8459 0.8463 0.8466
1526.000000 0.8470 0.8475 0.8479 0.8484 0.8487
1531.000000 0.8491 0.8494 0.8498 0.8502 0.8505
1536.000000 0.8509 0.8512 0.8516 0.8519 0.8523
1541.000000 0.8526 0.8529 0.8533 0.8536 0.8540
1546.000000 0.8543 0.8547 0.8550 0.8553 0.8557
1551.000000 0.8560 0.8563 0.8566 0.8570 0.8576
1556.000000 0.8582 0.8588 0.8595 0.8601 0.8607
1561.000000 0.8616 0.8620 0.8611 0.8602 0.8593
1566.000000 0.8591 0.8592 0.8594 0.8596 0.8598
1571.000000 0.8602 0.8605 0.8609 0.8612 0.8615
1576.000000 0.8618 0.8620 0.8621 0.8623 0.8625
1581.000000 0.8626 0.8627 0.8628 0.8629 0.8630
1586.000000 0.8631 0.8632 0.8633 0.8633 0.8633
1591.000000 0.8633 0.8633 0.8633 0.8633 0.8633
1596.000000 0.8633 0.8633 0.8633 0.8632 0.8632
1601.000000 0.8631 0.8631 0.8631 0.8630 0.8630
1606.000000 0.8629 0.8631 0.8632 0.8633 0.8634
1611.000000 0.8636 0.8637 0.8638 0.8639 0.8641
1616.000000 0.8642 0.8643 0.8644 0.8645 0.8646
1621.000000 0.8647 0.8648 0.8650 0.8651 0.8652
1626.000000 0.8652 0.8652 0.8652 0.8652 0.8652
1631.000000 0.8652 0.8651 0.8651 0.8651 0.8650
1636.000000 0.8650 0.8649 0.8649 0.8649 0.8648
1641.000000 0.8648 0.8649 0.8650 0.8650 0.8651
1646.000000 0.8652 0.8653 0.8655 0.8657 0.8659
1651.000000 0.8662 0.8665 0.8666 0.8662 0.8658
1656.000000 0.8653 0.8649 0.8643 0.8635 0.8628
1661.000000 0.8626 0.8625 0.8626 0.8627 0.8629
1666.000000 0.8630 0.8632 0.8633 0.8634 0.8636
1671.000000 0.8636 0.8636 0.8636 0.8636 0.8636
1676.000000 0.8636 0.8637 0.8638 0.8639 0.8640
1681.000000 0.8642 0.8643 0.8646 0.8653 0.8660
1686.000000 0.8661 0.8655 0.8648 0.8642 0.8635
1691.000000 0.8628 0.8623 0.8617 0.8617 0.8619
1696.000000 0.8621 0.8622 0.8624 0.8626 0.8628
1701.000000 0.8630 0.8632 0.8634 0.8636 0.8638
1706.000000 0.8640 0.8642 0.8644 0.8647 0.8650
1711.000000 0.8652 0.8655 0.8658 0.8661 0.8664
1716.000000 0.8667 0.8669 0.8672 0.8675 0.8678
1721.000000 0.8677 0.8677 0.8676 0.8676 0.8675
1726.000000 0.8675 0.8674 0.8670 0.8666 0.8662
1731.000000 0.8658 0.8654 0.8654 0.8658 0.8666
1736.000000 0.8677 0.8689 0.8686 0.8683 0.8680
1741.000000 0.8677 0.8674 0.8671 0.8667 0.8664
1746.000000 0.8661 0.8660 0.8658 0.8656 0.8655
1751.000000 0.8651 0.8647 0.8643 0.8639 0.8639
1756.000000 0.8639 0.8639 0.8639 0.8638 0.8637
1761.000000 0.8636 0.8636 0.8635 0.8634 0.8633
1766.000000 0.8633 0.8632 0.8631 0.8630 0.8630
1771.000000 0.8629 0.8628 0.8627 0.8627 0.8626
1776.000000 0.8625 0.8624 0.8624 0.8623 0.8622
1781.000000 0.8621 0.8620 0.8620 0.8619 0.8619
1786.000000 0.8619 0.8620 0.8620 0.8621 0.8621
1791.000000 0.8622 0.8622 0.8622 0.8623 0.8623
1796.000000 0.8623 0.8624 0.8624 0.8625 0.8625
1801.000000 0.8625 0.8626 0.8626 0.8627 0.8627
1806.000000 0.8627 0.8628 0.8628 0.8629 0.8629
1811.000000 0.8629 0.8630 0.8630 0.8631 0.8631
1816.000000 0.8632 0.8632 0.8633 0.8633 0.8634
1821.000000 0.8634 0.8635 0.8635 0.8636 0.8636
1826.000000 0.8637 0.8637 0.8638 0.8638 0.8639
1831.000000 0.8639 0.8640 0.8640 0.8641 0.8641
1836.000000 0.8641 0.8640 0.8639 0.8639 0.8638
1841.000000 0.8637 0.8637 0.8636 0.8635 0.8634
1846.000000 0.8634 0.8633 0.8632 0.8632 0.8631
1851.000000 0.8630 0.8629 0.8629 0.8628 0.8627
1856.000000 0.8626 0.8626 0.8625 0.8624 0.8624
1861.000000 0.8623 0.8622 0.8621 0.8621 0.8620
1866.000000 0.8619 0.8619 0.8618 0.8617 0.8617
1871.000000 0.8617 0.8617 0.8617 0.8616 0.8616
1876.000000 0.8616 0.8616 0.8616 0.8615 0.8615
1881.000000 0.8615 0.8615 0.8625 0.8614 0.8614
1886.000000 0.8614 0.8614 0.8614 0.8613 0.8613
1891.000000 0.8614 0.8615 0.8616 0.8617 0.8619
1896.000000 0.8620 0.8621 0.8622 0.8623 0.8624
1901.000000 0.8626 0.8627 0.8628 0.8629 0.8630
1906.000000 0.8631 0.8631 0.8632 0.8633 0.8634
1911.000000 0.8635 0.8636 0.8637 0.8642 0.8647
1916.000000 0.8652 0.8657 0.8660 0.8662 0.8662
1921.000000 0.8658 0.8654 0.8649 0.8645 0.8642
1926.000000 0.8638 0.8634 0.8631 0.8628 0.8627
1931.000000 0.8626 0.8625 0.8625 0.8625 0.8626
1936.000000 0.8627 0.8627 0.8628 0.8628 0.8628
1941.000000 0.8628 0.8628 0.8628 0.8628 0.8628
1946.000000 0.8628 0.8628 0.8628 0.8628 0.8628
1951.000000 0.8628 0.8627 0.8626 0.8626 0.8625
1956.000000 0.8624 0.8624 0.8623 0.8623 0.8622
1961.000000 0.8621 0.8621 0.8620 0.8620 0.8620
1966.000000 0.8621 0.8621 0.8621 0.8621 0.8622
1971.000000 0.8622 0.8622 0.8623 0.8623 0.8623
1976.000000 0.8623 0.8624 0.8624 0.8625 0.8625
1981.000000 0.8626 0.8626 0.8627 0.8628 0.8628
1986.000000 0.8629 0.8629 0.8630 0.8630 0.8631
1991.000000 0.8632 0.8632 0.8633 0.8634 0.8635
1996.000000 0.8634 0.8633 0.8632 0.8632 0.8631
2001.000000 0.8629 0.8627 0.8626 0.8625 0.8624
2006.000000 0.8623 0.8622 0.8621 0.8620 0.8620
2011.000000 0.8619 0.8618 0.8617 0.8616 0.8614
2016.000000 0.8613 0.8611 0.8610 0.8608 0.8606
2021.000000 0.8604 0.8603 0.8601 0.8600 0.8598
2026.000000 0.8597 0.8595 0.8593 0.8591 0.8590
2031.000000 0.8588 0.8586 0.8584 0.8582 0.8579
2036.000000 0.8577 0.8575 0.8573 0.8573 0.8574
2041.000000 0.8575 0.8576 0.8577 0.8578 0.8579
2046.000000 0.8580 0.8581 0.8582 0.8583 0.8584
2051.000000 0.8585 0.8586 0.8586 0.8587 0.8588
2056.000000 0.8589 0.8590 0.8591 0.8592 0.8593
2061.000000 0.8594 0.8595 0.8596 0.8597 0.8597
2066.000000 0.8598 0.8599 0.8600 0.8601 0.8602
2071.000000 0.8603 0.8604 0.8604 0.8605 0.8606
2076.000000 0.8607 0.8608 0.8609 0.8609 0.8610
2081.000000 0.8611 0.8612 0.8613 0.8614 0.8615
2086.000000 0.8616 0.8616 0.8617 0.8618 0.8619
2091.000000 0.8619 0.8620 0.8620 0.8621 0.8621
2096.000000 0.8622 0.8622 0.8623 0.8623 0.8624
2101.000000 0.8624 0.8625 0.8625 0.8626 0.8626
2106.000000 0.8627 0.8627 0.8628 0.8628 0.8629
2111.000000 0.8629 0.8630 0.8630 0.8631 0.8631
2116.000000 0.8631 0.8631 0.8632 0.8632 0.8633
2121.000000 0.8633 0.8634 0.8634 0.8635 0.8635
2126.000000 0.8635 0.8635 0.8636 0.8636 0.8636
2131.000000 0.8636 0.8637 0.8637 0.8637 0.8637
2136.000000 0.8638 0.8638 0.8639 0.8639 0.8639
2141.000000 0.8639 0.8640 0.8640 0.8640 0.8640
2146.000000 0.8641 0.8641 0.8641 0.8641 0.8642
2151.000000 0.8642 0.8643 0.8643 0.8644 0.8644
2156.000000 0.8644 0.8644 0.8645 0.8645 0.8646
2161.000000 0.8646 0.8647 0.8647 0.8647 0.8647
2166.000000 0.8648 0.8648 0.8649 0.8649 0.8650
2171.000000 0.8650 0.8650 0.8650 0.8651 0.8651
2176.000000 0.8652 0.8652 0.8653 0.8653 0.8654
2181.000000 0.8654 0.8655 0.8656 0.8657 0.8658
2186.000000 0.8659 0.8659 0.8660 0.8661 0.8662
2191.000000 0.8662 0.8663 0.8664 0.8665 0.8665
2196.000000 0.8666 0.8667 0.8668 0.8668 0.8669
2201.000000 0.8670 0.8671 0.8671 0.8672 0.8673
2206.000000 0.8674 0.8675 0.8676 0.8676 0.8677
2211.000000 0.8678 0.8679 0.8679 0.8680 0.8681
2216.000000 0.8682 0.8682 0.8683 0.8683 0.8684
2221.000000 0.8684 0.8685 0.8685 0.8686 0.8686
2226.000000 0.8686 0.8686 0.8687 0.8687 0.8688
2231.000000 0.8688 0.8689 0.8689 0.8689 0.8689
2236.000000 0.8690 0.8690 0.8691 0.8691 0.8692
2241.000000 0.8692 0.8692 0.8692 0.8693 0.8693
2246.000000 0.8694 0.8694 0.8694 0.8694 0.8695
2251.000000 0.8695 0.8696 0.8696 0.8697 0.8697
2256.000000 0.8697 0.8697 0.8698 0.8698 0.8699
2261.000000 0.8699 0.8700 0.8700 0.8700 0.8700
2266.000000 0.8701 0.8701 0.8702 0.8702 0.8703
2271.000000 0.8703 0.8703 0.8703 0.8704 0.8704
2276.000000 0.8705 0.8705 0.8705 0.8705 0.8706
2281.000000 0.8707 0.8708 0.8708 0.8709 0.8710
2286.000000 0.8711 0.8712 0.8713 0.8714 0.8715
2291.000000 0.8715 0.8716 0.8717 0.8718 0.8719
2296.000000 0.8720 0.8721 0.8722 0.8722 0.8723
2301.000000 0.8724 0.8725 0.8727 0.8730 0.8732
2306.000000 0.8735 0.8737 0.8740 0.8742 0.8745
2311.000000 0.8748 0.8752 0.8756 0.8760 0.8764
2316.000000 0.8769 0.8773 0.8777 0.8783 0.8789
2321.000000 0.8796 0.8803 0.8809 0.8816 0.8822
2326.000000 0.8828 0.8832 0.8836 0.8838 0.8841
2331.000000 0.8840 0.8840 0.8839 0.8838 0.8836
2336.000000 0.8835 0.8834 0.8833 0.8831 0.8829
2341.000000 0.8827 0.8825 0.8823 0.8821 0.8820
2346.000000 0.8820 0.8822 0.8825 0.8827 0.8830
2351.000000 0.8840 0.8850 0.8861 0.8872 0.8883
2356.000000 0.8895 0.8905 0.8916 0.8922 0.8929
2361.000000 0.8926 0.8924 0.8920 0.8916 0.8912
2366.000000 0.8908 0.8898 0.8889 0.8879 0.8869
2371.000000 0.8857 0.8845 0.8830 0.8815 0.8798
2376.000000 0.8782 0.8764 0.8747 0.8732 0.8717
2381.000000 0.8704 0.8691 0.8682 0.8674 0.8670
2386.000000 0.8666 0.8664 0.8662 0.8661 0.8660
2391.000000 0.8659 0.8659 0.8658 0.8657 0.8656
2396.000000 0.8655 0.8655 0.8655 0.8655 0.8655
2401.000000 0.8655 0.8655 0.8655 0.8655 0.8655
2406.000000 0.8655 0.8657 0.8660 0.8661 0.8663
2411.000000 0.8665 0.8667 0.8669 0.8671 0.8673
2416.000000 0.8676 0.8678 0.8680 0.8682 0.8685
2421.000000 0.8687 0.8690 0.8692 0.8695 0.8697
2426.000000 0.8700 0.8701 0.8703 0.8704 0.8706
2431.000000 0.8707 0.8709 0.8710 0.8711 0.8712
2436.000000 0.8714 0.8715 0.8717 0.8718 0.8720
2441.000000 0.8721 0.8722 0.8723 0.8725 0.8726
2446.000000 0.8728 0.8729 0.8731 0.8732 0.8733
2451.000000 0.8734 0.8736 0.8737 0.8739 0.8740
2456.000000 0.8741 0.8742 0.8744 0.8745 0.8746
2461.000000 0.8747 0.8748 0.8748 0.8748 0.8748
2466.000000 0.8749 0.8749 0.8750 0.8750 0.8750
2471.000000 0.8750 0.8751 0.8751 0.8751 0.8751
2476.000000 0.8752 0.8752 0.8753 0.8753 0.8753
2481.000000 0.8753 0.8754 0.8754 0.8754 0.8754
2486.000000 0.8755 0.8754 0.8754 0.8753 0.8753
