##TITLE=propylene oxide
##JCAMP-DX=4.24
##DATA TYPE=INFRARED SPECTRUM
##CLASS=COBLENTZ
##ORIGIN=DOW CHEMICAL COMPANY
##OWNER=Copyright (C) 1987 by the Coblentz Society
Collection (C) 2009 copyright by the U.S. Secretary of Commerce
on behalf of the United States of America. All rights reserved.
##DATE=1964
##NAMES=2-methyloxirane
1,2-PROPYLENE OXIDE
##CAS REGISTRY NO=75-56-9
##MOLFORM=C3 H6 O
##SOURCE REFERENCE=COBLENTZ NO. 8801
##$NIST SOURCE=COBLENTZ
##$NIST IMAGE=cob8801
##SPECTROMETER/DATA SYSTEM=DOW KBr FOREPRISM-GRATING
##INSTRUMENT PARAMETERS=GRATING CHANGED AT 5.0, 7.5, 15.0 MICRON
##STATE=GAS
##PARTIAL_PRESSURE=100 mmHg
##PATH LENGTH=5 CM
##SAMPLING PROCEDURE=TRANSMISSION
##RESOLUTION=2
##DATA PROCESSING=DIGITIZED BY COBLENTZ SOCIETY (BATCH II) FROM HARD COPY
##XUNITS=1/CM
##YUNITS=TRANSMITTANCE
##XFACTOR=1.0
##YFACTOR=1
##FIRSTX=462
##LASTX=3796
##FIRSTY=0.8806
##MAXX=3796
##MINX=462
##MAXY=0.8982
##MINY=0.0322
##NPOINTS=3335
##XYDATA=(X++(Y..Y))
462.000000 0.8806 0.8811 0.8814 0.8816 0.8817
467.000000 0.8818 0.8819 0.8820 0.8817 0.8814
472.000000 0.8812 0.8809 0.8807 0.8804 0.8801
477.000000 0.8798 0.8795 0.8791 0.8787 0.8784
482.000000 0.8780 0.8777 0.8773 0.8769 0.8767
487.000000 0.8765 0.8762 0.8760 0.8758 0.8756
492.000000 0.8754 0.8752 0.8751 0.8750 0.8749
497.000000 0.8748 0.8747 0.8746 0.8745 0.8744
502.000000 0.8743 0.8742 0.8741 0.8740 0.8740
507.000000 0.8740 0.8740 0.8740 0.8740 0.8740
512.000000 0.8740 0.8739 0.8739 0.8739 0.8739
517.000000 0.8739 0.8739 0.8739 0.8738 0.8738
522.000000 0.8737 0.8737 0.8737 0.8736 0.8736
527.000000 0.8735 0.8735 0.8734 0.8734 0.8734
532.000000 0.8733 0.8733 0.8732 0.8732 0.8732
537.000000 0.8731 0.8731 0.8730 0.8731 0.8732
542.000000 0.8733 0.8735 0.8736 0.8737 0.8738
547.000000 0.8739 0.8740 0.8741 0.8742 0.8744
552.000000 0.8745 0.8748 0.8751 0.8754 0.8757
557.000000 0.8760 0.8763 0.8766 0.8769 0.8772
562.000000 0.8775 0.8778 0.8781 0.8784 0.8787
567.000000 0.8790 0.8793 0.8796 0.8799 0.8802
572.000000 0.8805 0.8809 0.8812 0.8815 0.8818
577.000000 0.8821 0.8824 0.8828 0.8831 0.8834
582.000000 0.8837 0.8840 0.8843 0.8847 0.8850
587.000000 0.8853 0.8856 0.8859 0.8862 0.8865
592.000000 0.8868 0.8870 0.8873 0.8875 0.8878
597.000000 0.8880 0.8883 0.8885 0.8888 0.8890
602.000000 0.8893 0.8895 0.8898 0.8900 0.8903
607.000000 0.8905 0.8908 0.8910 0.8913 0.8915
612.000000 0.8918 0.8920 0.8923 0.8925 0.8927
617.000000 0.8929 0.8931 0.8933 0.8935 0.8936
622.000000 0.8938 0.8940 0.8942 0.8944 0.8946
627.000000 0.8948 0.8950 0.8952 0.8954 0.8956
632.000000 0.8957 0.8957 0.8957 0.8958 0.8958
637.000000 0.8958 0.8958 0.8958 0.8959 0.8959
642.000000 0.8959 0.8959 0.8959 0.8960 0.8960
647.000000 0.8960 0.8961 0.8963 0.8964 0.8965
652.000000 0.8971 0.8968 0.8969 0.8970 0.8972
657.000000 0.8973 0.8974 0.8976 0.8977 0.8978
662.000000 0.8979 0.8979 0.8979 0.8979 0.8980
667.000000 0.8980 0.8980 0.8981 0.8981 0.8981
672.000000 0.8981 0.8982 0.8981 0.8981 0.8981
677.000000 0.8981 0.8981 0.8981 0.8981 0.8981
682.000000 0.8979 0.8975 0.8972 0.8968 0.8965
687.000000 0.8961 0.8958 0.8951 0.8944 0.8937
692.000000 0.8930 0.8923 0.8916 0.8909 0.8903
697.000000 0.8897 0.8891 0.8886 0.8880 0.8809
702.000000 0.8730 0.8662 0.8662 0.8694 0.8856
707.000000 0.8856 0.8854 0.8848 0.8837 0.8817
712.000000 0.8798 0.8779 0.8756 0.8731 0.8708
717.000000 0.8689 0.8670 0.8651 0.8631 0.8607
722.000000 0.8580 0.8546 0.8512 0.8478 0.8441
727.000000 0.8401 0.8361 0.8321 0.8272 0.8199
732.000000 0.8135 0.8087 0.8039 0.7986 0.7870
737.000000 0.7754 0.7639 0.7503 0.7360 0.7234
742.000000 0.7102 0.6964 0.6845 0.6749 0.6653
747.000000 0.6557 0.6480 0.6404 0.6329 0.6264
752.000000 0.6218 0.6172 0.6126 0.6075 0.6017
757.000000 0.5960 0.5818 0.5639 0.5465 0.5462
762.000000 0.5462 0.5914 0.6425 0.6421 0.6234
767.000000 0.6044 0.5854 0.5665 0.5475 0.5285
772.000000 0.5079 0.5052 0.5035 0.5058 0.5088
777.000000 0.5169 0.5339 0.5550 0.5792 0.6033
782.000000 0.6274 0.6516 0.6757 0.6958 0.7096
787.000000 0.7192 0.7256 0.7292 0.7312 0.7357
792.000000 0.7321 0.7319 0.7306 0.7271 0.7215
797.000000 0.7127 0.7043 0.6946 0.6848 0.6784
802.000000 0.6720 0.6656 0.6318 0.6132 0.5946
807.000000 0.5760 0.5575 0.5389 0.5203 0.5017
812.000000 0.4832 0.4646 0.4208 0.3944 0.3332
817.000000 0.2995 0.2754 0.2566 0.2356 0.2186
822.000000 0.2058 0.1439 0.1230 0.1140 0.1075
827.000000 0.1017 0.0991 0.0970 0.0979 0.0970
832.000000 0.0994 0.1078 0.1169 0.1259 0.1350
837.000000 0.1455 0.1467 0.1134 0.0741 0.0483
842.000000 0.0452 0.1061 0.1505 0.1497 0.1131
847.000000 0.0986 0.0986 0.0989 0.0995 0.0966
852.000000 0.1044 0.1109 0.1185 0.1258 0.1355
857.000000 0.1475 0.1558 0.1797 0.2147 0.2496
862.000000 0.2846 0.3195 0.3545 0.3894 0.3996
867.000000 0.4099 0.4193 0.4318 0.4581 0.5744
872.000000 0.6086 0.6205 0.6323 0.6431 0.6538
877.000000 0.6634 0.6717 0.6799 0.6877 0.6946
882.000000 0.7015 0.7086 0.7177 0.7268 0.7323
887.000000 0.7369 0.7411 0.7436 0.7465 0.7503
892.000000 0.7619 0.7672 0.7679 0.7668 0.7528
897.000000 0.7472 0.7466 0.7546 0.7674 0.7694
902.000000 0.7687 0.7603 0.7556 0.7509 0.7486
907.000000 0.7470 0.7460 0.7455 0.7451 0.7447
912.000000 0.7444 0.7440 0.7436 0.7430 0.7423
917.000000 0.7416 0.7405 0.7393 0.7378 0.7354
922.000000 0.7329 0.7291 0.7199 0.7103 0.7007
927.000000 0.6911 0.6814 0.6718 0.6622 0.6526
932.000000 0.6430 0.6333 0.6237 0.6141 0.6045
937.000000 0.5948 0.5852 0.5756 0.5660 0.5546
942.000000 0.5465 0.5399 0.5332 0.5218 0.5084
947.000000 0.4967 0.4851 0.4741 0.4639 0.4601
952.000000 0.4583 0.4594 0.4608 0.4668 0.4873
957.000000 0.5102 0.5333 0.5563 0.5645 0.5666
962.000000 0.5405 0.5047 0.4688 0.4354 0.4390
967.000000 0.4416 0.4455 0.4504 0.4602 0.4728
972.000000 0.4854 0.4980 0.5106 0.5232 0.5358
977.000000 0.5485 0.5611 0.5761 0.5888 0.6010
982.000000 0.6109 0.6209 0.6309 0.6437 0.6562
987.000000 0.6678 0.6784 0.6852 0.6921 0.6972
992.000000 0.7012 0.7043 0.7054 0.7065 0.7058
997.000000 0.7037 0.7015 0.6989 0.6926 0.6841
1002.000000 0.6757 0.6673 0.6589 0.6504 0.6420
1007.000000 0.6336 0.6252 0.6167 0.6054 0.5936
1012.000000 0.5843 0.5759 0.5681 0.5605 0.5545
1017.000000 0.5490 0.5468 0.5460 0.5473 0.5506
1022.000000 0.5687 0.5867 0.6048 0.6220 0.6235
1027.000000 0.6088 0.5915 0.5741 0.5568 0.5394
1032.000000 0.5360 0.5416 0.5510 0.5604 0.5698
1037.000000 0.5792 0.5886 0.5980 0.6074 0.6168
1042.000000 0.6282 0.6499 0.6714 0.6821 0.6927
1047.000000 0.7032 0.7136 0.7238 0.7339 0.7439
1052.000000 0.7531 0.7623 0.7719 0.7828 0.7937
1057.000000 0.8021 0.8088 0.8155 0.8222 0.8262
1062.000000 0.8299 0.8336 0.8372 0.8399 0.8421
1067.000000 0.8443 0.8456 0.8466 0.8505 0.8474
1072.000000 0.8471 0.8462 0.8452 0.8442 0.8419
1077.000000 0.8389 0.8355 0.8321 0.8286 0.8249
1082.000000 0.8212 0.8171 0.8125 0.8080 0.8034
1087.000000 0.7989 0.7940 0.7891 0.7842 0.7789
1092.000000 0.7710 0.7631 0.7460 0.7348 0.7262
1097.000000 0.7176 0.7091 0.7005 0.6919 0.6834
1102.000000 0.6748 0.6663 0.6577 0.6491 0.6478
1107.000000 0.6474 0.6470 0.6460 0.6288 0.6116
1112.000000 0.5944 0.5772 0.5600 0.5428 0.5412
1117.000000 0.5421 0.5431 0.5462 0.5518 0.5579
1122.000000 0.5642 0.5644 0.5640 0.5638 0.5640
1127.000000 0.5644 0.5652 0.5666 0.5707 0.5684
1132.000000 0.5538 0.5392 0.5246 0.5149 0.5172
1137.000000 0.5338 0.5878 0.6245 0.6261 0.6286
1142.000000 0.6392 0.6565 0.6573 0.6501 0.6375
1147.000000 0.6249 0.6170 0.6238 0.6520 0.6791
1152.000000 0.6880 0.6944 0.6985 0.7006 0.7017
1157.000000 0.7013 0.7004 0.6985 0.6979 0.6986
1162.000000 0.7022 0.7117 0.7234 0.7366 0.7481
1167.000000 0.7557 0.7633 0.7712 0.7797 0.7881
1172.000000 0.7960 0.8025 0.8089 0.8153 0.8217
1177.000000 0.8271 0.8321 0.8370 0.8419 0.8467
1182.000000 0.8507 0.8546 0.8586 0.8625 0.8665
1187.000000 0.8702 0.8722 0.8743 0.8763 0.8784
1192.000000 0.8804 0.8825 0.8837 0.8849 0.8861
1197.000000 0.8873 0.8879 0.8882 0.8886 0.8889
1202.000000 0.8892 0.8896 0.8899 0.8903 0.8903
1207.000000 0.8903 0.8903 0.8903 0.8922 0.8903
1212.000000 0.8900 0.8896 0.8893 0.8886 0.8877
1217.000000 0.8868 0.8858 0.8847 0.8833 0.8818
1222.000000 0.8803 0.8789 0.8774 0.8754 0.8735
1227.000000 0.8715 0.8696 0.8676 0.8650 0.8617
1232.000000 0.8583 0.8550 0.8511 0.8459 0.8408
1237.000000 0.8356 0.8305 0.8252 0.8172 0.8093
1242.000000 0.8013 0.7934 0.7850 0.7739 0.7628
1247.000000 0.7517 0.7413 0.7311 0.7209 0.7107
1252.000000 0.7006 0.6905 0.6816 0.6751 0.6689
1257.000000 0.6643 0.6597 0.6569 0.6543 0.6521
1262.000000 0.6506 0.6490 0.6477 0.6469 0.6525
1267.000000 0.6720 0.6710 0.6472 0.6237 0.6232
1272.000000 0.6716 0.6643 0.6591 0.6543 0.6548
1277.000000 0.6538 0.6603 0.6666 0.6730 0.6794
1282.000000 0.6858 0.6923 0.6987 0.7051 0.7115
1287.000000 0.7179 0.7243 0.7308 0.7367 0.7413
1292.000000 0.7482 0.7550 0.7618 0.7684 0.7750
1297.000000 0.7815 0.7884 0.7956 0.8027 0.8099
1302.000000 0.8172 0.8248 0.8323 0.8399 0.8447
1307.000000 0.8495 0.8543 0.8590 0.8617 0.8636
1312.000000 0.8655 0.8674 0.8693 0.8705 0.8712
1317.000000 0.8715 0.8716 0.8716 0.8717 0.8718
1322.000000 0.8718 0.8718 0.8718 0.8730 0.8718
1327.000000 0.8716 0.8711 0.8705 0.8700 0.8694
1332.000000 0.8685 0.8677 0.8669 0.8660 0.8652
1337.000000 0.8640 0.8623 0.8607 0.8590 0.8574
1342.000000 0.8555 0.8537 0.8519 0.8501 0.8474
1347.000000 0.8441 0.8408 0.8376 0.8343 0.8308
1352.000000 0.8272 0.8236 0.8201 0.8165 0.8126
1357.000000 0.8079 0.8031 0.7984 0.7936 0.7891
1362.000000 0.7846 0.7800 0.7757 0.7719 0.7681
1367.000000 0.7643 0.7606 0.7578 0.7550 0.7521
1372.000000 0.7479 0.7428 0.6950 0.6135 0.5319
1377.000000 0.5014 0.5184 0.5957 0.6729 0.7294
1382.000000 0.7273 0.7144 0.6937 0.6731 0.6524
1387.000000 0.6317 0.6110 0.5913 0.5624 0.5364
1392.000000 0.5104 0.4845 0.4585 0.4326 0.4066
1397.000000 0.3806 0.3547 0.3287 0.3028 0.2754
1402.000000 0.2652 0.2611 0.2578 0.2776 0.2906
1407.000000 0.3035 0.3164 0.3294 0.3441 0.3384
1412.000000 0.2305 0.1226 0.0716 0.0869 0.2062
1417.000000 0.3256 0.4449 0.4985 0.4973 0.4333
1422.000000 0.3578 0.2822 0.2213 0.2166 0.2124
1427.000000 0.2119 0.2108 0.2375 0.2616 0.2856
1432.000000 0.3096 0.3337 0.3577 0.3817 0.4058
1437.000000 0.4298 0.4538 0.4779 0.5015 0.5096
1442.000000 0.5156 0.5188 0.5213 0.5231 0.5255
1447.000000 0.5281 0.5319 0.5387 0.5474 0.5575
1452.000000 0.5669 0.5699 0.5714 0.5707 0.5679
1457.000000 0.5510 0.5422 0.5395 0.5386 0.5433
1462.000000 0.5490 0.5509 0.5296 0.4847 0.4398
1467.000000 0.4429 0.4398 0.4915 0.5158 0.5350
1472.000000 0.5361 0.5285 0.5209 0.5134 0.5059
1477.000000 0.5038 0.5032 0.5209 0.5318 0.5427
1482.000000 0.5531 0.5584 0.5634 0.5684 0.5732
1487.000000 0.5777 0.5836 0.5708 0.5377 0.5046
1492.000000 0.4826 0.4828 0.4841 0.5984 0.6191
1497.000000 0.6185 0.6147 0.6100 0.6045 0.5989
1502.000000 0.5977 0.5975 0.5989 0.6003 0.6030
1507.000000 0.6083 0.6216 0.6348 0.6481 0.6613
1512.000000 0.6746 0.6820 0.6871 0.6921 0.6972
1517.000000 0.7040 0.7108 0.7182 0.7258 0.7308
1522.000000 0.7317 0.7312 0.7286 0.7255 0.7189
1527.000000 0.7155 0.7125 0.7113 0.7112 0.7117
1532.000000 0.7137 0.7176 0.7225 0.7284 0.7369
1537.000000 0.7517 0.7663 0.7752 0.7841 0.7923
1542.000000 0.8002 0.8082 0.8201 0.8259 0.8300
1547.000000 0.8332 0.8363 0.8394 0.8426 0.8457
1552.000000 0.8488 0.8513 0.8527 0.8537 0.8546
1557.000000 0.8551 0.8555 0.8557 0.8559 0.8560
1562.000000 0.8561 0.8563 0.8564 0.8561 0.8556
1567.000000 0.8551 0.8545 0.8533 0.8520 0.8507
1572.000000 0.8495 0.8486 0.8477 0.8468 0.8459
1577.000000 0.8450 0.8441 0.8432 0.8424 0.8415
1582.000000 0.8409 0.8405 0.8401 0.8396 0.8392
1587.000000 0.8388 0.8383 0.8379 0.8387 0.8403
1592.000000 0.8419 0.8433 0.8439 0.8445 0.8441
1597.000000 0.8433 0.8425 0.8413 0.8402 0.8392
1602.000000 0.8389 0.8387 0.8385 0.8392 0.8407
1607.000000 0.8425 0.8444 0.8467 0.8491 0.8515
1612.000000 0.8539 0.8563 0.8579 0.8584 0.8588
1617.000000 0.8588 0.8587 0.8586 0.8586 0.8585
1622.000000 0.8585 0.8583 0.8581 0.8579 0.8577
1627.000000 0.8576 0.8574 0.8571 0.8567 0.8562
1632.000000 0.8558 0.8554 0.8549 0.8545 0.8541
1637.000000 0.8536 0.8529 0.8523 0.8516 0.8509
1642.000000 0.8503 0.8496 0.8491 0.8486 0.8482
1647.000000 0.8477 0.8473 0.8468 0.8464 0.8459
1652.000000 0.8455 0.8450 0.8447 0.8443 0.8439
1657.000000 0.8436 0.8432 0.8428 0.8425 0.8421
1662.000000 0.8419 0.8419 0.8418 0.8418 0.8417
1667.000000 0.8417 0.8416 0.8416 0.8415 0.8415
1672.000000 0.8417 0.8419 0.8421 0.8422 0.8422
1677.000000 0.8421 0.8420 0.8420 0.8419 0.8419
1682.000000 0.8418 0.8417 0.8415 0.8414 0.8417
1687.000000 0.8431 0.8449 0.8467 0.8484 0.8488
1692.000000 0.8493 0.8496 0.8497 0.8498 0.8500
1697.000000 0.8501 0.8503 0.8504 0.8506 0.8507
1702.000000 0.8508 0.8509 0.8509 0.8509 0.8509
1707.000000 0.8508 0.8508 0.8507 0.8507 0.8506
1712.000000 0.8506 0.8505 0.8500 0.8495 0.8490
1717.000000 0.8485 0.8484 0.8491 0.8499 0.8507
1722.000000 0.8520 0.8532 0.8545 0.8558 0.8572
1727.000000 0.8585 0.8599 0.8612 0.8622 0.8633
1732.000000 0.8643 0.8654 0.8662 0.8669 0.8675
1737.000000 0.8682 0.8688 0.8695 0.8701 0.8705
1742.000000 0.8708 0.8712 0.8715 0.8719 0.8722
1747.000000 0.8724 0.8724 0.8724 0.8724 0.8724
1752.000000 0.8724 0.8722 0.8719 0.8716 0.8713
1757.000000 0.8711 0.8708 0.8705 0.8703 0.8700
1762.000000 0.8697 0.8695 0.8692 0.8690 0.8687
1767.000000 0.8685 0.8682 0.8680 0.8677 0.8675
1772.000000 0.8672 0.8670 0.8668 0.8668 0.8668
1777.000000 0.8668 0.8668 0.8668 0.8668 0.8668
1782.000000 0.8668 0.8668 0.8667 0.8667 0.8667
1787.000000 0.8669 0.8670 0.8672 0.8674 0.8676
1792.000000 0.8678 0.8680 0.8682 0.8684 0.8686
1797.000000 0.8688 0.8691 0.8693 0.8695 0.8698
1802.000000 0.8700 0.8703 0.8705 0.8707 0.8711
1807.000000 0.8716 0.8722 0.8728 0.8734 0.8739
1812.000000 0.8742 0.8745 0.8747 0.8750 0.8752
1817.000000 0.8755 0.8758 0.8760 0.8762 0.8760
1822.000000 0.8759 0.8757 0.8756 0.8754 0.8753
1827.000000 0.8752 0.8750 0.8749 0.8749 0.8748
1832.000000 0.8747 0.8747 0.8746 0.8745 0.8744
1837.000000 0.8744 0.8743 0.8742 0.8742 0.8741
1842.000000 0.8740 0.8740 0.8739 0.8738 0.8738
1847.000000 0.8737 0.8736 0.8736 0.8735 0.8734
1852.000000 0.8733 0.8733 0.8732 0.8731 0.8731
1857.000000 0.8730 0.8729 0.8728 0.8727 0.8726
1862.000000 0.8724 0.8723 0.8722 0.8720 0.8719
1867.000000 0.8718 0.8716 0.8715 0.8714 0.8712
1872.000000 0.8711 0.8709 0.8708 0.8707 0.8705
1877.000000 0.8704 0.8702 0.8700 0.8698 0.8697
1882.000000 0.8695 0.8693 0.8691 0.8689 0.8688
1887.000000 0.8686 0.8684 0.8682 0.8680 0.8679
1892.000000 0.8677 0.8676 0.8676 0.8676 0.8675
1897.000000 0.8675 0.8675 0.8675 0.8674 0.8674
1902.000000 0.8674 0.8673 0.8673 0.8673 0.8673
1907.000000 0.8672 0.8672 0.8672 0.8672 0.8671
1912.000000 0.8671 0.8671 0.8671 0.8671 0.8671
1917.000000 0.8671 0.8671 0.8671 0.8672 0.8673
1922.000000 0.8674 0.8675 0.8676 0.8677 0.8679
1927.000000 0.8681 0.8685 0.8690 0.8695 0.8700
1932.000000 0.8703 0.8705 0.8704 0.8703 0.8703
1937.000000 0.8702 0.8701 0.8696 0.8690 0.8684
1942.000000 0.8678 0.8672 0.8666 0.8661 0.8655
1947.000000 0.8649 0.8643 0.8637 0.8631 0.8624
1952.000000 0.8618 0.8611 0.8605 0.8598 0.8592
1957.000000 0.8586 0.8582 0.8578 0.8574 0.8570
1962.000000 0.8566 0.8562 0.8558 0.8559 0.8564
1967.000000 0.8570 0.8584 0.8602 0.8598 0.8594
1972.000000 0.8586 0.8578 0.8570 0.8565 0.8562
1977.000000 0.8558 0.8555 0.8557 0.8559 0.8566
1982.000000 0.8576 0.8586 0.8598 0.8611 0.8624
1987.000000 0.8637 0.8650 0.8658 0.8665 0.8672
1992.000000 0.8680 0.8679 0.8673 0.8668 0.8663
1997.000000 0.8649 0.8633 0.8613 0.8602 0.8594
2002.000000 0.8587 0.8586 0.8585 0.8585 0.8585
2007.000000 0.8585 0.8585 0.8585 0.8585 0.8586
2012.000000 0.8587 0.8587 0.8588 0.8589 0.8590
2017.000000 0.8590 0.8591 0.8592 0.8593 0.8594
2022.000000 0.8595 0.8595 0.8596 0.8597 0.8598
2027.000000 0.8598 0.8599 0.8602 0.8605 0.8607
2032.000000 0.8610 0.8613 0.8616 0.8619 0.8622
2037.000000 0.8625 0.8629 0.8632 0.8636 0.8639
2042.000000 0.8643 0.8646 0.8650 0.8653 0.8657
2047.000000 0.8659 0.8661 0.8661 0.8662 0.8662
2052.000000 0.8663 0.8663 0.8663 0.8663 0.8664
2057.000000 0.8662 0.8661 0.8658 0.8656 0.8656
2062.000000 0.8656 0.8655 0.8655 0.8654 0.8654
2067.000000 0.8653 0.8653 0.8652 0.8652 0.8652
2072.000000 0.8652 0.8652 0.8652 0.8652 0.8652
2077.000000 0.8652 0.8652 0.8652 0.8652 0.8652
2082.000000 0.8652 0.8652 0.8653 0.8653 0.8654
2087.000000 0.8655 0.8656 0.8656 0.8657 0.8658
2092.000000 0.8659 0.8660 0.8661 0.8662 0.8663
2097.000000 0.8664 0.8666 0.8667 0.8668 0.8669
2102.000000 0.8671 0.8672 0.8673 0.8674 0.8675
2107.000000 0.8676 0.8678 0.8679 0.8680 0.8681
2112.000000 0.8682 0.8683 0.8685 0.8686 0.8687
2117.000000 0.8688 0.8689 0.8689 0.8689 0.8688
2122.000000 0.8688 0.8687 0.8686 0.8684 0.8683
2127.000000 0.8680 0.8677 0.8673 0.8670 0.8667
2132.000000 0.8664 0.8660 0.8656 0.8647 0.8639
2137.000000 0.8630 0.8622 0.8614 0.8606 0.8598
2142.000000 0.8590 0.8582 0.8574 0.8565 0.8557
2147.000000 0.8548 0.8540 0.8532 0.8524 0.8515
2152.000000 0.8507 0.8498 0.8489 0.8480 0.8471
2157.000000 0.8463 0.8455 0.8452 0.8449 0.8446
2162.000000 0.8443 0.8440 0.8437 0.8434 0.8432
2167.000000 0.8429 0.8413 0.8424 0.8422 0.8422
2172.000000 0.8422 0.8423 0.8424 0.8425 0.8426
2177.000000 0.8430 0.8434 0.8438 0.8442 0.8446
2182.000000 0.8450 0.8454 0.8458 0.8464 0.8470
2187.000000 0.8478 0.8487 0.8495 0.8504 0.8512
2192.000000 0.8520 0.8525 0.8530 0.8535 0.8540
2197.000000 0.8545 0.8551 0.8556 0.8561 0.8563
2202.000000 0.8566 0.8567 0.8569 0.8571 0.8573
2207.000000 0.8573 0.8573 0.8571 0.8575 0.8566
2212.000000 0.8564 0.8562 0.8560 0.8557 0.8555
2217.000000 0.8553 0.8551 0.8545 0.8540 0.8534
2222.000000 0.8529 0.8524 0.8519 0.8513 0.8508
2227.000000 0.8502 0.8496 0.8489 0.8482 0.8475
2232.000000 0.8468 0.8461 0.8454 0.8447 0.8441
2237.000000 0.8434 0.8427 0.8420 0.8413 0.8406
2242.000000 0.8399 0.8392 0.8385 0.8378 0.8371
2247.000000 0.8364 0.8357 0.8350 0.8343 0.8337
2252.000000 0.8332 0.8327 0.8322 0.8317 0.8312
2257.000000 0.8307 0.8302 0.8300 0.8298 0.8297
2262.000000 0.8297 0.8296 0.8283 0.8295 0.8295
2267.000000 0.8297 0.8299 0.8303 0.8307 0.8310
2272.000000 0.8314 0.8317 0.8321 0.8324 0.8328
2277.000000 0.8333 0.8339 0.8344 0.8349 0.8354
2282.000000 0.8360 0.8365 0.8371 0.8379 0.8387
2287.000000 0.8394 0.8402 0.8409 0.8417 0.8424
2292.000000 0.8432 0.8439 0.8447 0.8453 0.8460
2297.000000 0.8466 0.8473 0.8479 0.8486 0.8492
2302.000000 0.8499 0.8505 0.8512 0.8518 0.8524
2307.000000 0.8529 0.8535 0.8540 0.8545 0.8550
2312.000000 0.8555 0.8560 0.8565 0.8570 0.8576
2317.000000 0.8581 0.8586 0.8589 0.8592 0.8593
2322.000000 0.8594 0.8595 0.8596 0.8596 0.8597
2327.000000 0.8595 0.8593 0.8589 0.8585 0.8580
2332.000000 0.8576 0.8572 0.8568 0.8562 0.8557
2337.000000 0.8551 0.8546 0.8543 0.8541 0.8542
2342.000000 0.8543 0.8546 0.8549 0.8554 0.8560
2347.000000 0.8566 0.8572 0.8578 0.8584 0.8593
2352.000000 0.8602 0.8611 0.8620 0.8629 0.8638
2357.000000 0.8645 0.8653 0.8659 0.8665 0.8671
2362.000000 0.8678 0.8683 0.8689 0.8693 0.8698
2367.000000 0.8698 0.8699 0.8699 0.8700 0.8700
2372.000000 0.8701 0.8701 0.8701 0.8700 0.8700
2377.000000 0.8699 0.8698 0.8697 0.8697 0.8696
2382.000000 0.8696 0.8695 0.8695 0.8694 0.8694
2387.000000 0.8693 0.8692 0.8691 0.8691 0.8690
2392.000000 0.8690 0.8689 0.8689 0.8688 0.8688
2397.000000 0.8687 0.8687 0.8686 0.8686 0.8685
2402.000000 0.8685 0.8685 0.8686 0.8687 0.8688
2407.000000 0.8689 0.8690 0.8691 0.8692 0.8693
2412.000000 0.8694 0.8695 0.8696 0.8697 0.8698
2417.000000 0.8699 0.8700 0.8701 0.8702 0.8702
2422.000000 0.8703 0.8704 0.8705 0.8706 0.8707
2427.000000 0.8709 0.8712 0.8715 0.8718 0.8721
2432.000000 0.8724 0.8726 0.8729 0.8732 0.8735
2437.000000 0.8738 0.8741 0.8743 0.8746 0.8749
2442.000000 0.8752 0.8754 0.8756 0.8758 0.8760
2447.000000 0.8762 0.8764 0.8766 0.8768 0.8770
2452.000000 0.8772 0.8771 0.8771 0.8770 0.8769
2457.000000 0.8768 0.8767 0.8766 0.8765 0.8764
2462.000000 0.8763 0.8762 0.8762 0.8760 0.8758
2467.000000 0.8755 0.8753 0.8750 0.8748 0.8745
2472.000000 0.8742 0.8739 0.8737 0.8734 0.8732
2477.000000 0.8729 0.8727 0.8725 0.8724 0.8722
2482.000000 0.8721 0.8720 0.8719 0.8717 0.8716
2487.000000 0.8715 0.8714 0.8713 0.8712 0.8710
2492.000000 0.8709 0.8708 0.8707 0.8706 0.8705
