##TITLE=2-Butene, trans-
##JCAMP-DX=4.24
##DATA TYPE=INFRARED SPECTRUM
##CLASS=COBLENTZ
##ORIGIN=DOW CHEMICAL COMPANY
##OWNER=Copyright (C) 1987 by the Coblentz Society
Collection (C) 2009 copyright by the U.S. Secretary of Commerce
on behalf of the United States of America. All rights reserved.
##DATE=1964
##NAMES=(2E)-2-butene
2-BUTENE (E)
##CAS REGISTRY NO=624-64-6
##MOLFORM=C4 H8
##SOURCE REFERENCE=COBLENTZ NO. 8865
##$NIST SOURCE=COBLENTZ
##$NIST IMAGE=cob8865
##SPECTROMETER/DATA SYSTEM=DOW KBr FOREPRISM-GRATING
##INSTRUMENT PARAMETERS=GRATING CHANGED AT 5.0, 7.5, 15.0 MICRON
##STATE=GAS (150 mmHg, N2 ADDED, TOTAL PRESSURE 600 mmHg)
##PATH LENGTH=5 CM
##SAMPLING PROCEDURE=TRANSMISSION
##RESOLUTION=2
##DATA PROCESSING=DIGITIZED BY COBLENTZ SOCIETY (BATCH II) FROM HARD COPY
##XUNITS=1/CM
##YUNITS=TRANSMITTANCE
##XFACTOR=1.0
##YFACTOR=1
##FIRSTX=456
##LASTX=3798
##FIRSTY=0.8984
##MAXX=3798
##MINX=456
##MAXY=0.9512
##MINY=0.0071
##NPOINTS=3343
##XYDATA=(X++(Y..Y))
456.000000 0.8984 0.8984 0.8984 0.8984 0.8983
461.000000 0.8981 0.8978 0.8976 0.8972 0.8969
466.000000 0.8966 0.8971 0.8977 0.8984 0.8990
471.000000 0.8997 0.9006 0.9018 0.9030 0.9042
476.000000 0.9055 0.9068 0.9082 0.9095 0.9108
481.000000 0.9121 0.9134 0.9146 0.9159 0.9172
486.000000 0.9184 0.9196 0.9208 0.9219 0.9229
491.000000 0.9238 0.9247 0.9256 0.9266 0.9275
496.000000 0.9282 0.9289 0.9295 0.9299 0.9304
501.000000 0.9309 0.9310 0.9312 0.9314 0.9316
506.000000 0.9317 0.9319 0.9321 0.9320 0.9320
511.000000 0.9319 0.9319 0.9318 0.9318 0.9318
516.000000 0.9319 0.9320 0.9321 0.9322 0.9324
521.000000 0.9325 0.9326 0.9330 0.9334 0.9338
526.000000 0.9341 0.9340 0.9338 0.9335 0.9331
531.000000 0.9327 0.9324 0.9320 0.9317 0.9314
536.000000 0.9310 0.9306 0.9297 0.9287 0.9278
541.000000 0.9269 0.9261 0.9254 0.9247 0.9240
546.000000 0.9233 0.9226 0.9219 0.9212 0.9212
551.000000 0.9212 0.9212 0.9212 0.9215 0.9219
556.000000 0.9223 0.9226 0.9230 0.9234 0.9238
561.000000 0.9243 0.9251 0.9259 0.9266 0.9274
566.000000 0.9282 0.9290 0.9297 0.9305 0.9314
571.000000 0.9322 0.9331 0.9339 0.9348 0.9359
576.000000 0.9370 0.9388 0.9391 0.9401 0.9406
581.000000 0.9410 0.9415 0.9420 0.9424 0.9429
586.000000 0.9434 0.9438 0.9443 0.9448 0.9452
591.000000 0.9457 0.9460 0.9464 0.9468 0.9471
596.000000 0.9475 0.9474 0.9472 0.9471 0.9470
601.000000 0.9469 0.9468 0.9466 0.9465 0.9464
606.000000 0.9462 0.9461 0.9458 0.9455 0.9451
611.000000 0.9447 0.9444 0.9440 0.9436 0.9433
616.000000 0.9430 0.9426 0.9424 0.9421 0.9419
621.000000 0.9417 0.9414 0.9412 0.9411 0.9411
626.000000 0.9411 0.9411 0.9411 0.9412 0.9413
631.000000 0.9415 0.9417 0.9420 0.9422 0.9426
636.000000 0.9433 0.9439 0.9446 0.9454 0.9462
641.000000 0.9470 0.9477 0.9484 0.9490 0.9497
646.000000 0.9504 0.9510 0.9512 0.9510 0.9508
651.000000 0.9505 0.9501 0.9497 0.9493 0.9488
656.000000 0.9483 0.9478 0.9473 0.9468 0.9463
661.000000 0.9458 0.9453 0.9447 0.9441 0.9435
666.000000 0.9429 0.9423 0.9417 0.9411 0.9405
671.000000 0.9400 0.9394 0.9389 0.9384 0.9380
676.000000 0.9375 0.9371 0.9366 0.9361 0.9353
681.000000 0.9344 0.9336 0.9327 0.9318 0.9310
686.000000 0.9301 0.9292 0.9283 0.9274 0.9265
691.000000 0.9255 0.9245 0.9235 0.9225 0.9215
696.000000 0.9205 0.9194 0.9184 0.9174 0.9164
701.000000 0.9154 0.9144 0.9134 0.9128 0.9122
706.000000 0.9116 0.9110 0.9105 0.9099 0.9094
711.000000 0.9089 0.9085 0.9080 0.9075 0.9070
716.000000 0.9065 0.9060 0.9055 0.9050 0.9045
721.000000 0.9040 0.9036 0.9033 0.9029 0.9025
726.000000 0.9021 0.9017 0.9013 0.9010 0.9006
731.000000 0.9002 0.8998 0.8994 0.8991 0.8987
736.000000 0.8984 0.8980 0.8977 0.8974 0.8970
741.000000 0.8967 0.8963 0.8960 0.8957 0.8953
746.000000 0.8950 0.8946 0.8943 0.8939 0.8936
751.000000 0.8933 0.8929 0.8928 0.8926 0.8925
756.000000 0.8923 0.8922 0.8920 0.8919 0.8917
761.000000 0.8916 0.8914 0.8913 0.8912 0.8910
766.000000 0.8909 0.8907 0.8902 0.8896 0.8891
771.000000 0.8886 0.8881 0.8875 0.8870 0.8865
776.000000 0.8860 0.8854 0.8849 0.8844 0.8839
781.000000 0.8833 0.8828 0.8823 0.8819 0.8816
786.000000 0.8814 0.8812 0.8809 0.8807 0.8805
791.000000 0.8803 0.8800 0.8798 0.8796 0.8793
796.000000 0.8791 0.8789 0.8786 0.8784 0.8782
801.000000 0.8778 0.8775 0.8772 0.8768 0.8765
806.000000 0.8761 0.8758 0.8754 0.8751 0.8747
811.000000 0.8744 0.8740 0.8737 0.8734 0.8730
816.000000 0.8727 0.8723 0.8720 0.8716 0.8713
821.000000 0.8709 0.8706 0.8702 0.8699 0.8695
826.000000 0.8692 0.8688 0.8685 0.8681 0.8678
831.000000 0.8674 0.8671 0.8667 0.8664 0.8660
836.000000 0.8657 0.8653 0.8650 0.8648 0.8646
841.000000 0.8644 0.8642 0.8640 0.8638 0.8636
846.000000 0.8634 0.8632 0.8630 0.8628 0.8623
851.000000 0.8617 0.8612 0.8606 0.8600 0.8594
856.000000 0.8588 0.8579 0.8570 0.8561 0.8552
861.000000 0.8537 0.8523 0.8508 0.8494 0.8478
866.000000 0.8462 0.8446 0.8429 0.8413 0.8397
871.000000 0.8378 0.8360 0.8341 0.8323 0.8304
876.000000 0.8286 0.8267 0.8249 0.8230 0.8212
881.000000 0.8193 0.8175 0.8156 0.8138 0.8119
886.000000 0.8101 0.8081 0.8060 0.8039 0.8018
891.000000 0.7996 0.7959 0.7921 0.7883 0.7841
896.000000 0.7796 0.7750 0.7705 0.7651 0.7588
901.000000 0.7524 0.7461 0.7380 0.7299 0.7218
906.000000 0.7141 0.7064 0.6988 0.6908 0.6819
911.000000 0.6730 0.6641 0.6554 0.6474 0.6395
916.000000 0.6315 0.6226 0.6124 0.6022 0.5921
921.000000 0.5758 0.5589 0.5351 0.4605 0.4421
926.000000 0.4238 0.4056 0.3873 0.3691 0.3508
931.000000 0.3326 0.3143 0.2961 0.2778 0.2573
936.000000 0.2431 0.2288 0.2143 0.2000 0.1862
941.000000 0.1742 0.1631 0.1555 0.1486 0.1417
946.000000 0.1348 0.1279 0.1224 0.1170 0.1116
951.000000 0.1065 0.1015 0.0964 0.0913 0.0861
956.000000 0.0810 0.0730 0.0579 0.0332 0.0224
961.000000 0.0229 0.0224 0.0345 0.0488 0.0497
966.000000 0.0492 0.0465 0.0435 0.0420 0.0428
971.000000 0.0442 0.0456 0.0469 0.0490 0.0511
976.000000 0.0530 0.0559 0.0589 0.0619 0.0650
981.000000 0.0687 0.0725 0.0772 0.0834 0.0905
986.000000 0.0981 0.1059 0.1132 0.1210 0.1318
991.000000 0.2141 0.2486 0.2830 0.3174 0.3518
996.000000 0.3943 0.4079 0.4210 0.4340 0.4583
1001.000000 0.4779 0.4940 0.5122 0.5323 0.5469
1006.000000 0.5613 0.5767 0.5897 0.6004 0.6115
1011.000000 0.6267 0.6416 0.6554 0.6734 0.6966
1016.000000 0.7148 0.7277 0.7433 0.7574 0.7625
1021.000000 0.7641 0.7657 0.7654 0.7641 0.7646
1026.000000 0.7637 0.7623 0.7607 0.7591 0.7574
1031.000000 0.7554 0.7533 0.7504 0.7472 0.7438
1036.000000 0.7398 0.7315 0.7222 0.7130 0.7037
1041.000000 0.6944 0.6852 0.6759 0.6667 0.6577
1046.000000 0.6544 0.6515 0.6475 0.6337 0.5878
1051.000000 0.5746 0.5647 0.5585 0.5557 0.5580
1056.000000 0.5584 0.5711 0.5864 0.6017 0.6170
1061.000000 0.6262 0.6256 0.6266 0.6072 0.6008
1066.000000 0.5959 0.5919 0.5896 0.5804 0.5670
1071.000000 0.5535 0.5523 0.5694 0.6017 0.6210
1076.000000 0.6301 0.6406 0.6630 0.6854 0.7077
1081.000000 0.7301 0.7524 0.7739 0.8130 0.8202
1086.000000 0.8276 0.8353 0.8413 0.8446 0.8479
1091.000000 0.8511 0.8535 0.8560 0.8584 0.8609
1096.000000 0.8628 0.8643 0.8658 0.8674 0.8689
1101.000000 0.8703 0.8712 0.8721 0.8730 0.8737
1106.000000 0.8742 0.8747 0.8752 0.8757 0.8763
1111.000000 0.8768 0.8773 0.8778 0.8783 0.8786
1116.000000 0.8789 0.8791 0.8794 0.8797 0.8799
1121.000000 0.8798 0.8797 0.8797 0.8796 0.8834
1126.000000 0.8791 0.8787 0.8783 0.8779 0.8775
1131.000000 0.8768 0.8761 0.8754 0.8747 0.8739
1136.000000 0.8730 0.8721 0.8713 0.8704 0.8698
1141.000000 0.8692 0.8686 0.8685 0.8687 0.8688
1146.000000 0.8689 0.8691 0.8692 0.8693 0.8694
1151.000000 0.8695 0.8696 0.8697 0.8692 0.8682
1156.000000 0.8669 0.8653 0.8637 0.8621 0.8605
1161.000000 0.8589 0.8573 0.8557 0.8541 0.8526
1166.000000 0.8511 0.8496 0.8481 0.8465 0.8446
1171.000000 0.8427 0.8409 0.8390 0.8370 0.8348
1176.000000 0.8325 0.8303 0.8280 0.8257 0.8245
1181.000000 0.8232 0.8219 0.8206 0.8193 0.8186
1186.000000 0.8179 0.8173 0.8170 0.8167 0.8165
1191.000000 0.8162 0.8220 0.8162 0.8162 0.8162
1196.000000 0.8163 0.8166 0.8168 0.8172 0.8180
1201.000000 0.8187 0.8195 0.8203 0.8214 0.8226
1206.000000 0.8238 0.8250 0.8266 0.8283 0.8300
1211.000000 0.8316 0.8333 0.8341 0.8341 0.8342
1216.000000 0.8342 0.8340 0.8339 0.8338 0.8369
1221.000000 0.8335 0.8331 0.8326 0.8322 0.8317
1226.000000 0.8313 0.8308 0.8303 0.8296 0.8290
1231.000000 0.8284 0.8278 0.8269 0.8242 0.8205
1236.000000 0.8167 0.8124 0.8069 0.8026 0.8005
1241.000000 0.8001 0.8001 0.8005 0.8008 0.8015
1246.000000 0.8022 0.8031 0.8040 0.8049 0.8058
1251.000000 0.8067 0.8077 0.8088 0.8080 0.8085
1256.000000 0.8025 0.7975 0.7963 0.7960 0.7958
1261.000000 0.7966 0.7973 0.7990 0.8010 0.8038
1266.000000 0.8073 0.8115 0.8146 0.8177 0.8194
1271.000000 0.8211 0.8217 0.8221 0.8218 0.8210
1276.000000 0.8202 0.8191 0.8166 0.8137 0.8098
1281.000000 0.8050 0.7972 0.7904 0.7841 0.7777
1286.000000 0.7632 0.7417 0.7201 0.6986 0.6771
1291.000000 0.6687 0.6581 0.6501 0.6476 0.6477
1296.000000 0.6460 0.6482 0.6548 0.6613 0.6678
1301.000000 0.6744 0.6743 0.6761 0.6712 0.6680
1306.000000 0.6590 0.6470 0.6350 0.6230 0.6109
1311.000000 0.6020 0.6020 0.6018 0.6257 0.6519
1316.000000 0.6780 0.7042 0.7303 0.7598 0.7668
1321.000000 0.7739 0.7839 0.7942 0.7995 0.8048
1326.000000 0.8078 0.8105 0.8133 0.8154 0.8173
1331.000000 0.8183 0.8188 0.8192 0.8192 0.8200
1336.000000 0.8186 0.8184 0.8181 0.8175 0.8168
1341.000000 0.8148 0.8135 0.8123 0.8110 0.8097
1346.000000 0.8081 0.8062 0.8038 0.8013 0.7982
1351.000000 0.7951 0.7921 0.7886 0.7851 0.7816
1356.000000 0.7777 0.7731 0.7684 0.7637 0.7584
1361.000000 0.7532 0.7472 0.7399 0.7325 0.7223
1366.000000 0.7145 0.7071 0.7007 0.6945 0.6855
1371.000000 0.6756 0.6657 0.6558 0.6459 0.6361
1376.000000 0.6262 0.6172 0.6147 0.6133 0.6119
1381.000000 0.6105 0.6090 0.6075 0.6055 0.6033
1386.000000 0.5794 0.5550 0.5306 0.5062 0.4833
1391.000000 0.4762 0.4735 0.4754 0.4742 0.4770
1396.000000 0.4858 0.4947 0.5035 0.5123 0.5164
1401.000000 0.5175 0.5175 0.5204 0.5166 0.5132
1406.000000 0.5068 0.5004 0.4940 0.4877 0.4813
1411.000000 0.4749 0.4685 0.4621 0.4557 0.4493
1416.000000 0.4429 0.4365 0.4301 0.4237 0.4170
1421.000000 0.4103 0.4047 0.3991 0.3933 0.3875
1426.000000 0.3817 0.3723 0.3629 0.3576 0.3527
1431.000000 0.3478 0.3442 0.3407 0.3373 0.3345
1436.000000 0.3317 0.3289 0.3255 0.3219 0.3164
1441.000000 0.3084 0.2916 0.2772 0.2674 0.2586
1446.000000 0.2399 0.1971 0.1543 0.1475 0.1742
1451.000000 0.2050 0.2354 0.2383 0.2424 0.2473
1456.000000 0.2547 0.2698 0.3090 0.3111 0.3117
1461.000000 0.3118 0.3129 0.3055 0.2940 0.2789
1466.000000 0.2619 0.2513 0.2449 0.2392 0.2360
1471.000000 0.2363 0.2352 0.2394 0.2450 0.2537
1476.000000 0.2613 0.2683 0.2749 0.2838 0.2935
1481.000000 0.3104 0.3215 0.3318 0.3418 0.3525
1486.000000 0.3659 0.3780 0.3895 0.4037 0.4174
1491.000000 0.4232 0.4293 0.4361 0.4447 0.4545
1496.000000 0.4644 0.4742 0.4840 0.4890 0.4939
1501.000000 0.4988 0.5050 0.5136 0.5251 0.5382
1506.000000 0.5546 0.5826 0.5996 0.6132 0.6246
1511.000000 0.6344 0.6429 0.6518 0.6610 0.6710
1516.000000 0.6834 0.6955 0.7068 0.7173 0.7245
1521.000000 0.7318 0.7388 0.7442 0.7468 0.7495
1526.000000 0.7524 0.7555 0.7585 0.7620 0.7660
1531.000000 0.7700 0.7739 0.7788 0.7837 0.7887
1536.000000 0.7937 0.7983 0.8040 0.8105 0.8150
1541.000000 0.8151 0.8147 0.8141 0.8133 0.8130
1546.000000 0.8128 0.8127 0.8127 0.8137 0.8148
1551.000000 0.8168 0.8188 0.8216 0.8256 0.8297
1556.000000 0.8331 0.8359 0.8357 0.8332 0.8307
1561.000000 0.8273 0.8234 0.8203 0.8181 0.8175
1566.000000 0.8175 0.8175 0.8175 0.8174 0.8169
1571.000000 0.8164 0.8169 0.8175 0.8181 0.8187
1576.000000 0.8198 0.8203 0.8191 0.8180 0.8168
1581.000000 0.8153 0.8141 0.8142 0.8143 0.8144
1586.000000 0.8146 0.8146 0.8148 0.8150 0.8152
1591.000000 0.8154 0.8156 0.8158 0.8161 0.8162
1596.000000 0.8164 0.8185 0.8166 0.8167 0.8168
1601.000000 0.8170 0.8170 0.8170 0.8170 0.8176
1606.000000 0.8183 0.8189 0.8192 0.8194 0.8180
1611.000000 0.8165 0.8160 0.8174 0.8188 0.8202
1616.000000 0.8189 0.8178 0.8165 0.8191 0.8218
1621.000000 0.8244 0.8253 0.8245 0.8236 0.8229
1626.000000 0.8227 0.8229 0.8230 0.8237 0.8254
1631.000000 0.8272 0.8296 0.8314 0.8321 0.8300
1636.000000 0.8282 0.8263 0.8248 0.8234 0.8229
1641.000000 0.8236 0.8250 0.8273 0.8290 0.8296
1646.000000 0.8286 0.8276 0.8265 0.8291 0.8341
1651.000000 0.8405 0.8407 0.8382 0.8356 0.8302
1656.000000 0.8268 0.8244 0.8236 0.8229 0.8233
1661.000000 0.8259 0.8238 0.8209 0.8202 0.8206
1666.000000 0.8217 0.8240 0.8256 0.8234 0.8210
1671.000000 0.8188 0.8167 0.8147 0.8132 0.8100
1676.000000 0.8061 0.8024 0.7989 0.7955 0.7935
1681.000000 0.7916 0.7908 0.7906 0.7875 0.7792
1686.000000 0.7687 0.7551 0.7484 0.7423 0.7373
1691.000000 0.7326 0.7302 0.7298 0.7325 0.7380
1696.000000 0.7458 0.7515 0.7562 0.7598 0.7624
1701.000000 0.7612 0.7599 0.7539 0.7473 0.7401
1706.000000 0.7330 0.7280 0.7257 0.7261 0.7253
1711.000000 0.7300 0.7423 0.7558 0.7692 0.7827
1716.000000 0.7962 0.8100 0.8155 0.8193 0.8215
1721.000000 0.8236 0.8258 0.8280 0.8302 0.8324
1726.000000 0.8346 0.8367 0.8389 0.8410 0.8434
1731.000000 0.8461 0.8496 0.8536 0.8523 0.8509
1736.000000 0.8495 0.8488 0.8492 0.8496 0.8502
1741.000000 0.8507 0.8511 0.8513 0.8522 0.8517
1746.000000 0.8517 0.8516 0.8515 0.8514 0.8511
1751.000000 0.8507 0.8504 0.8500 0.8495 0.8489
1756.000000 0.8482 0.8470 0.8457 0.8444 0.8414
1761.000000 0.8384 0.8352 0.8307 0.8263 0.8218
1766.000000 0.8168 0.8112 0.8056 0.8001 0.7947
1771.000000 0.7894 0.7843 0.7797 0.7760 0.7738
1776.000000 0.7725 0.7742 0.7737 0.7756 0.7782
1781.000000 0.7817 0.7850 0.7858 0.7855 0.7886
1786.000000 0.7831 0.7801 0.7777 0.7753 0.7736
1791.000000 0.7724 0.7720 0.7734 0.7744 0.7755
1796.000000 0.7813 0.8049 0.8168 0.8224 0.8265
1801.000000 0.8310 0.8356 0.8397 0.8426 0.8456
1806.000000 0.8472 0.8486 0.8495 0.8503 0.8511
1811.000000 0.8516 0.8519 0.8521 0.8523 0.8525
1816.000000 0.8527 0.8529 0.8531 0.8532 0.8533
1821.000000 0.8534 0.8534 0.8535 0.8536 0.8535
1826.000000 0.8535 0.8534 0.8534 0.8534 0.8533
1831.000000 0.8533 0.8533 0.8534 0.8535 0.8537
1836.000000 0.8556 0.8558 0.8568 0.8579 0.8588
1841.000000 0.8589 0.8591 0.8580 0.8568 0.8558
1846.000000 0.8551 0.8544 0.8537 0.8531 0.8521
1851.000000 0.8511 0.8501 0.8491 0.8493 0.8502
1856.000000 0.8515 0.8527 0.8536 0.8544 0.8548
1861.000000 0.8551 0.8554 0.8557 0.8559 0.8561
1866.000000 0.8562 0.8559 0.8556 0.8553 0.8549
1871.000000 0.8542 0.8535 0.8524 0.8509 0.8494
1876.000000 0.8493 0.8493 0.8493 0.8494 0.8495
1881.000000 0.8496 0.8497 0.8497 0.8497 0.8497
1886.000000 0.8496 0.8496 0.8496 0.8495 0.8495
1891.000000 0.8494 0.8494 0.8493 0.8493 0.8492
1896.000000 0.8492 0.8492 0.8491 0.8490 0.8488
1901.000000 0.8487 0.8485 0.8484 0.8481 0.8477
1906.000000 0.8474 0.8470 0.8466 0.8463 0.8459
1911.000000 0.8455 0.8452 0.8447 0.8442 0.8436
1916.000000 0.8430 0.8425 0.8419 0.8414 0.8408
1921.000000 0.8403 0.8399 0.8396 0.8392 0.8388
1926.000000 0.8385 0.8381 0.8378 0.8378 0.8378
1931.000000 0.8379 0.8380 0.8380 0.8381 0.8384
1936.000000 0.8390 0.8396 0.8402 0.8409 0.8426
1941.000000 0.8444 0.8460 0.8476 0.8492 0.8504
1946.000000 0.8512 0.8520 0.8521 0.8521 0.8520
1951.000000 0.8520 0.8519 0.8518 0.8517 0.8516
1956.000000 0.8515 0.8514 0.8513 0.8512 0.8511
1961.000000 0.8510 0.8508 0.8504 0.8498 0.8491
1966.000000 0.8485 0.8479 0.8472 0.8466 0.8460
1971.000000 0.8453 0.8442 0.8431 0.8419 0.8408
1976.000000 0.8395 0.8377 0.8359 0.8341 0.8323
1981.000000 0.8305 0.8286 0.8265 0.8241 0.8217
1986.000000 0.8192 0.8168 0.8143 0.8118 0.8092
1991.000000 0.8070 0.8059 0.8047 0.8036 0.8039
1996.000000 0.8049 0.8053 0.8060 0.8064 0.8061
2001.000000 0.8058 0.8055 0.8045 0.8036 0.8016
2006.000000 0.7997 0.7988 0.7979 0.7985 0.7988
2011.000000 0.8019 0.8047 0.8075 0.8104 0.8132
2016.000000 0.8161 0.8189 0.8218 0.8246 0.8275
2021.000000 0.8303 0.8331 0.8355 0.8380 0.8397
2026.000000 0.8414 0.8425 0.8437 0.8447 0.8457
2031.000000 0.8463 0.8470 0.8476 0.8483 0.8489
2036.000000 0.8496 0.8500 0.8505 0.8509 0.8513
2041.000000 0.8517 0.8521 0.8525 0.8529 0.8532
2046.000000 0.8536 0.8539 0.8543 0.8546 0.8550
2051.000000 0.8553 0.8556 0.8558 0.8560 0.8560
2056.000000 0.8561 0.8562 0.8563 0.8563 0.8564
2061.000000 0.8564 0.8565 0.8566 0.8567 0.8566
2066.000000 0.8566 0.8564 0.8563 0.8561 0.8560
2071.000000 0.8559 0.8558 0.8556 0.8555 0.8553
2076.000000 0.8552 0.8551 0.8550 0.8548 0.8547
2081.000000 0.8545 0.8544 0.8543 0.8542 0.8541
2086.000000 0.8540 0.8539 0.8538 0.8537 0.8536
2091.000000 0.8535 0.8534 0.8533 0.8532 0.8531
2096.000000 0.8530 0.8528 0.8527 0.8526 0.8526
2101.000000 0.8526 0.8526 0.8526 0.8526 0.8526
2106.000000 0.8527 0.8528 0.8529 0.8529 0.8530
2111.000000 0.8531 0.8532 0.8533 0.8534 0.8534
2116.000000 0.8534 0.8534 0.8535 0.8535 0.8535
2121.000000 0.8535 0.8535 0.8535 0.8535 0.8534
2126.000000 0.8534 0.8533 0.8533 0.8532 0.8532
2131.000000 0.8531 0.8531 0.8531 0.8531 0.8530
2136.000000 0.8530 0.8529 0.8529 0.8528 0.8528
2141.000000 0.8528 0.8528 0.8528 0.8528 0.8528
2146.000000 0.8528 0.8528 0.8528 0.8528 0.8528
2151.000000 0.8528 0.8528 0.8528 0.8528 0.8528
2156.000000 0.8528 0.8528 0.8548 0.8528 0.8528
2161.000000 0.8528 0.8528 0.8528 0.8529 0.8528
2166.000000 0.8528 0.8527 0.8527 0.8526 0.8525
2171.000000 0.8524 0.8524 0.8523 0.8523 0.8522
2176.000000 0.8522 0.8521 0.8520 0.8519 0.8518
2181.000000 0.8517 0.8517 0.8516 0.8515 0.8514
2186.000000 0.8513 0.8512 0.8511 0.8510 0.8510
2191.000000 0.8510 0.8510 0.8510 0.8510 0.8510
2196.000000 0.8510 0.8510 0.8510 0.8510 0.8511
2201.000000 0.8511 0.8511 0.8511 0.8511 0.8511
2206.000000 0.8511 0.8511 0.8511 0.8511 0.8511
2211.000000 0.8511 0.8511 0.8511 0.8511 0.8510
2216.000000 0.8510 0.8508 0.8507 0.8505 0.8504
2221.000000 0.8503 0.8502 0.8500 0.8499 0.8498
2226.000000 0.8497 0.8495 0.8494 0.8492 0.8491
2231.000000 0.8489 0.8487 0.8484 0.8482 0.8480
2236.000000 0.8478 0.8475 0.8473 0.8471 0.8469
2241.000000 0.8467 0.8466 0.8466 0.8466 0.8466
2246.000000 0.8466 0.8466 0.8466 0.8466 0.8466
2251.000000 0.8466 0.8466 0.8468 0.8470 0.8472
2256.000000 0.8474 0.8476 0.8478 0.8480 0.8482
2261.000000 0.8483 0.8485 0.8488 0.8491 0.8494
2266.000000 0.8497 0.8500 0.8503 0.8506 0.8509
2271.000000 0.8508 0.8507 0.8505 0.8504 0.8502
2276.000000 0.8501 0.8500 0.8499 0.8497 0.8496
2281.000000 0.8494 0.8492 0.8488 0.8485 0.8482
2286.000000 0.8479 0.8477 0.8476 0.8476 0.8477
2291.000000 0.8477 0.8478 0.8478 0.8479 0.8480
2296.000000 0.8481 0.8481 0.8482 0.8482 0.8483
2301.000000 0.8484 0.8486 0.8488 0.8491 0.8493
2306.000000 0.8496 0.8499 0.8502 0.8504 0.8507
2311.000000 0.8511 0.8516 0.8520 0.8525 0.8529
2316.000000 0.8534 0.8539 0.8544 0.8550 0.8556
2321.000000 0.8563 0.8570 0.8577 0.8584 0.8588
2326.000000 0.8593 0.8596 0.8600 0.8599 0.8599
2331.000000 0.8597 0.8596 0.8595 0.8594 0.8591
2336.000000 0.8589 0.8585 0.8582 0.8578 0.8575
2341.000000 0.8571 0.8567 0.8563 0.8560 0.8557
2346.000000 0.8554 0.8551 0.8548 0.8545 0.8542
2351.000000 0.8539 0.8536 0.8533 0.8530 0.8527
2356.000000 0.8524 0.8521 0.8518 0.8515 0.8512
2361.000000 0.8509 0.8506 0.8503 0.8501 0.8498
2366.000000 0.8495 0.8490 0.8486 0.8481 0.8476
2371.000000 0.8471 0.8466 0.8459 0.8453 0.8444
2376.000000 0.8436 0.8427 0.8419 0.8410 0.8402
2381.000000 0.8398 0.8394 0.8390 0.8387 0.8385
2386.000000 0.8383 0.8384 0.8386 0.8391 0.8397
2391.000000 0.8402 0.8407 0.8415 0.8424 0.8432
2396.000000 0.8441 0.8444 0.8448 0.8441 0.8435
2401.000000 0.8427 0.8420 0.8412 0.8404 0.8396
2406.000000 0.8389 0.8380 0.8372 0.8361 0.8351
2411.000000 0.8340 0.8330 0.8319 0.8308 0.8297
2416.000000 0.8287 0.8276 0.8266 0.8255 0.8245
2421.000000 0.8234 0.8224 0.8213 0.8202 0.8189
2426.000000 0.8177 0.8164 0.8152 0.8139 0.8126
2431.000000 0.8115 0.8105 0.8094 0.8084 0.8073
2436.000000 0.8063 0.8059 0.8028 0.8057 0.8060
2441.000000 0.8066 0.8072 0.8079 0.8086 0.8097
2446.000000 0.8108 0.8118 0.8129 0.8139 0.8149
2451.000000 0.8159 0.8169 0.8177 0.8185 0.8193
2456.000000 0.8201 0.8209 0.8217 0.8232 0.8247
2461.000000 0.8267 0.8288 0.8308 0.8329 0.8347
2466.000000 0.8366 0.8378 0.8391 0.8393 0.8396
2471.000000 0.8397 0.8399 0.8400 0.8402 0.8403
2476.000000 0.8404 0.8404 0.8405 0.8405 0.8405
2481.000000 0.8405 0.8405 0.8405 0.8405 0.8405
2486.000000 0.8405 0.8405 0.8406 0.8406 0.8406
